"70BCSV 	",
// AQ6370B OPTICAL SPECTRUM ANALYZER //                 ,
25,
CTRWL,1550
SPAN,100
START WL,1500
STOP WL,1600
WLFREQ,0
REFL,-30
LSCL,5
RESLN,0.2
AVG,1
SMPLAUTO,0
SMPL,5001
SMPLINTVL,0.02
HIGH1,
MEAS,
LSUNT,0
NMSKH,OFF
RESCOR,0
RESPARM,9417
FREQPARM,9417
,
,
,
,
,
,
[TRACE DATA],
1500,-58.703
1500.02,-58.683
1500.04,-58.68
1500.06,-58.68
1500.08,-58.679
1500.1,-58.663
1500.12,-58.667
1500.14,-58.648
1500.16,-58.658
1500.18,-58.656
1500.2,-58.639
1500.22,-58.641
1500.24,-58.637
1500.26,-58.627
1500.28,-58.617
1500.3,-58.614
1500.32,-58.605
1500.34,-58.605
1500.36,-58.606
1500.38,-58.598
1500.4,-58.595
1500.42,-58.581
1500.44,-58.579
1500.46,-58.584
1500.48,-58.565
1500.5,-58.56
1500.52,-58.537
1500.54,-58.551
1500.56,-58.535
1500.58,-58.546
1500.6,-58.529
1500.62,-58.525
1500.64,-58.512
1500.66,-58.52
1500.68,-58.512
1500.7,-58.505
1500.72,-58.498
1500.74,-58.485
1500.76,-58.494
1500.78,-58.47
1500.8,-58.473
1500.82,-58.471
1500.84,-58.471
1500.86,-58.457
1500.88,-58.442
1500.9,-58.442
1500.92,-58.438
1500.94,-58.439
1500.96,-58.412
1500.98,-58.416
1501,-58.418
1501.02,-58.405
1501.04,-58.41
1501.06,-58.395
1501.08,-58.379
1501.1,-58.39
1501.12,-58.376
1501.14,-58.363
1501.16,-58.368
1501.18,-58.35
1501.2,-58.348
1501.22,-58.341
1501.24,-58.336
1501.26,-58.33
1501.28,-58.348
1501.3,-58.317
1501.32,-58.308
1501.34,-58.304
1501.36,-58.304
1501.38,-58.31
1501.4,-58.297
1501.42,-58.294
1501.44,-58.278
1501.46,-58.282
1501.48,-58.257
1501.5,-58.272
1501.52,-58.254
1501.54,-58.244
1501.56,-58.244
1501.58,-58.23
1501.6,-58.238
1501.62,-58.229
1501.64,-58.234
1501.66,-58.203
1501.68,-58.212
1501.7,-58.194
1501.72,-58.205
1501.74,-58.193
1501.76,-58.18
1501.78,-58.172
1501.8,-58.18
1501.82,-58.173
1501.84,-58.173
1501.86,-58.155
1501.88,-58.155
1501.9,-58.143
1501.92,-58.142
1501.94,-58.127
1501.96,-58.14
1501.98,-58.12
1502,-58.121
1502.02,-58.097
1502.04,-58.099
1502.06,-58.08
1502.08,-58.087
1502.1,-58.075
1502.12,-58.063
1502.14,-58.056
1502.16,-58.044
1502.18,-58.055
1502.2,-58.048
1502.22,-58.039
1502.24,-58.036
1502.26,-58.029
1502.28,-58.015
1502.3,-58.017
1502.32,-57.996
1502.34,-58.008
1502.36,-58.005
1502.38,-57.985
1502.4,-57.983
1502.42,-57.965
1502.44,-57.962
1502.46,-57.967
1502.48,-57.963
1502.5,-57.942
1502.52,-57.951
1502.54,-57.935
1502.56,-57.931
1502.58,-57.926
1502.6,-57.916
1502.62,-57.917
1502.64,-57.907
1502.66,-57.903
1502.68,-57.888
1502.7,-57.883
1502.72,-57.871
1502.74,-57.887
1502.76,-57.862
1502.78,-57.845
1502.8,-57.855
1502.82,-57.838
1502.84,-57.836
1502.86,-57.826
1502.88,-57.826
1502.9,-57.806
1502.92,-57.811
1502.94,-57.799
1502.96,-57.791
1502.98,-57.788
1503,-57.775
1503.02,-57.767
1503.04,-57.763
1503.06,-57.762
1503.08,-57.75
1503.1,-57.738
1503.12,-57.738
1503.14,-57.738
1503.16,-57.726
1503.18,-57.715
1503.2,-57.717
1503.22,-57.711
1503.24,-57.698
1503.26,-57.695
1503.28,-57.684
1503.3,-57.683
1503.32,-57.677
1503.34,-57.67
1503.36,-57.66
1503.38,-57.647
1503.4,-57.642
1503.42,-57.641
1503.44,-57.632
1503.46,-57.624
1503.48,-57.62
1503.5,-57.614
1503.52,-57.609
1503.54,-57.595
1503.56,-57.59
1503.58,-57.58
1503.6,-57.572
1503.62,-57.572
1503.64,-57.559
1503.66,-57.561
1503.68,-57.554
1503.7,-57.531
1503.72,-57.543
1503.74,-57.529
1503.76,-57.518
1503.78,-57.503
1503.8,-57.504
1503.82,-57.503
1503.84,-57.503
1503.86,-57.489
1503.88,-57.476
1503.9,-57.474
1503.92,-57.468
1503.94,-57.456
1503.96,-57.448
1503.98,-57.45
1504,-57.432
1504.02,-57.436
1504.04,-57.416
1504.06,-57.416
1504.08,-57.41
1504.1,-57.398
1504.12,-57.397
1504.14,-57.391
1504.16,-57.378
1504.18,-57.38
1504.2,-57.377
1504.22,-57.355
1504.24,-57.346
1504.26,-57.338
1504.28,-57.332
1504.3,-57.331
1504.32,-57.326
1504.34,-57.317
1504.36,-57.312
1504.38,-57.301
1504.4,-57.297
1504.42,-57.287
1504.44,-57.29
1504.46,-57.271
1504.48,-57.27
1504.5,-57.258
1504.52,-57.253
1504.54,-57.245
1504.56,-57.232
1504.58,-57.215
1504.6,-57.216
1504.62,-57.22
1504.64,-57.202
1504.66,-57.198
1504.68,-57.206
1504.7,-57.196
1504.72,-57.179
1504.74,-57.181
1504.76,-57.175
1504.78,-57.165
1504.8,-57.161
1504.82,-57.147
1504.84,-57.137
1504.86,-57.137
1504.88,-57.122
1504.9,-57.113
1504.92,-57.106
1504.94,-57.098
1504.96,-57.082
1504.98,-57.087
1505,-57.083
1505.02,-57.068
1505.04,-57.059
1505.06,-57.057
1505.08,-57.048
1505.1,-57.033
1505.12,-57.024
1505.14,-57.026
1505.16,-57.02
1505.18,-57.008
1505.2,-56.992
1505.22,-56.993
1505.24,-56.98
1505.26,-56.971
1505.28,-56.975
1505.3,-56.956
1505.32,-56.943
1505.34,-56.938
1505.36,-56.937
1505.38,-56.93
1505.4,-56.922
1505.42,-56.909
1505.44,-56.895
1505.46,-56.889
1505.48,-56.891
1505.5,-56.875
1505.52,-56.869
1505.54,-56.862
1505.56,-56.848
1505.58,-56.838
1505.6,-56.833
1505.62,-56.818
1505.64,-56.816
1505.66,-56.82
1505.68,-56.794
1505.7,-56.8
1505.72,-56.789
1505.74,-56.773
1505.76,-56.772
1505.78,-56.769
1505.8,-56.748
1505.82,-56.748
1505.84,-56.735
1505.86,-56.729
1505.88,-56.719
1505.9,-56.721
1505.92,-56.706
1505.94,-56.697
1505.96,-56.694
1505.98,-56.68
1506,-56.681
1506.02,-56.664
1506.04,-56.663
1506.06,-56.653
1506.08,-56.638
1506.1,-56.639
1506.12,-56.632
1506.14,-56.631
1506.16,-56.61
1506.18,-56.615
1506.2,-56.603
1506.22,-56.592
1506.24,-56.584
1506.26,-56.586
1506.28,-56.57
1506.3,-56.562
1506.32,-56.565
1506.34,-56.539
1506.36,-56.547
1506.38,-56.528
1506.4,-56.521
1506.42,-56.517
1506.44,-56.502
1506.46,-56.498
1506.48,-56.49
1506.5,-56.49
1506.52,-56.476
1506.54,-56.462
1506.56,-56.454
1506.58,-56.455
1506.6,-56.44
1506.62,-56.439
1506.64,-56.421
1506.66,-56.416
1506.68,-56.409
1506.7,-56.41
1506.72,-56.392
1506.74,-56.384
1506.76,-56.375
1506.78,-56.362
1506.8,-56.367
1506.82,-56.359
1506.84,-56.336
1506.86,-56.333
1506.88,-56.329
1506.9,-56.321
1506.92,-56.307
1506.94,-56.294
1506.96,-56.289
1506.98,-56.284
1507,-56.278
1507.02,-56.264
1507.04,-56.263
1507.06,-56.247
1507.08,-56.25
1507.1,-56.237
1507.12,-56.227
1507.14,-56.226
1507.16,-56.21
1507.18,-56.202
1507.2,-56.194
1507.22,-56.184
1507.24,-56.179
1507.26,-56.172
1507.28,-56.166
1507.3,-56.161
1507.32,-56.152
1507.34,-56.135
1507.36,-56.132
1507.38,-56.119
1507.4,-56.115
1507.42,-56.108
1507.44,-56.091
1507.46,-56.082
1507.48,-56.084
1507.5,-56.068
1507.52,-56.057
1507.54,-56.059
1507.56,-56.042
1507.58,-56.033
1507.6,-56.026
1507.62,-56.01
1507.64,-56.009
1507.66,-55.994
1507.68,-55.983
1507.7,-55.976
1507.72,-55.962
1507.74,-55.958
1507.76,-55.963
1507.78,-55.946
1507.8,-55.935
1507.82,-55.924
1507.84,-55.916
1507.86,-55.906
1507.88,-55.898
1507.9,-55.893
1507.92,-55.883
1507.94,-55.869
1507.96,-55.868
1507.98,-55.854
1508,-55.852
1508.02,-55.841
1508.04,-55.838
1508.06,-55.822
1508.08,-55.822
1508.1,-55.808
1508.12,-55.801
1508.14,-55.789
1508.16,-55.785
1508.18,-55.77
1508.2,-55.765
1508.22,-55.755
1508.24,-55.748
1508.26,-55.742
1508.28,-55.73
1508.3,-55.727
1508.32,-55.718
1508.34,-55.704
1508.36,-55.705
1508.38,-55.694
1508.4,-55.684
1508.42,-55.67
1508.44,-55.664
1508.46,-55.658
1508.48,-55.649
1508.5,-55.636
1508.52,-55.624
1508.54,-55.625
1508.56,-55.607
1508.58,-55.605
1508.6,-55.59
1508.62,-55.585
1508.64,-55.57
1508.66,-55.567
1508.68,-55.556
1508.7,-55.551
1508.72,-55.537
1508.74,-55.534
1508.76,-55.528
1508.78,-55.515
1508.8,-55.505
1508.82,-55.495
1508.84,-55.494
1508.86,-55.482
1508.88,-55.468
1508.9,-55.461
1508.92,-55.45
1508.94,-55.445
1508.96,-55.432
1508.98,-55.429
1509,-55.415
1509.02,-55.404
1509.04,-55.403
1509.06,-55.387
1509.08,-55.386
1509.1,-55.374
1509.12,-55.367
1509.14,-55.356
1509.16,-55.349
1509.18,-55.337
1509.2,-55.322
1509.22,-55.32
1509.24,-55.309
1509.26,-55.303
1509.28,-55.289
1509.3,-55.285
1509.32,-55.273
1509.34,-55.264
1509.36,-55.261
1509.38,-55.248
1509.4,-55.235
1509.42,-55.225
1509.44,-55.214
1509.46,-55.208
1509.48,-55.195
1509.5,-55.186
1509.52,-55.174
1509.54,-55.166
1509.56,-55.155
1509.58,-55.142
1509.6,-55.129
1509.62,-55.128
1509.64,-55.115
1509.66,-55.102
1509.68,-55.093
1509.7,-55.088
1509.72,-55.082
1509.74,-55.07
1509.76,-55.053
1509.78,-55.05
1509.8,-55.043
1509.82,-55.031
1509.84,-55.021
1509.86,-55.011
1509.88,-55.004
1509.9,-54.991
1509.92,-54.984
1509.94,-54.974
1509.96,-54.967
1509.98,-54.962
1510,-54.955
1510.02,-54.943
1510.04,-54.936
1510.06,-54.927
1510.08,-54.91
1510.1,-54.902
1510.12,-54.894
1510.14,-54.881
1510.16,-54.873
1510.18,-54.858
1510.2,-54.844
1510.22,-54.839
1510.24,-54.826
1510.26,-54.821
1510.28,-54.808
1510.3,-54.792
1510.32,-54.781
1510.34,-54.766
1510.36,-54.758
1510.38,-54.752
1510.4,-54.736
1510.42,-54.725
1510.44,-54.718
1510.46,-54.706
1510.48,-54.697
1510.5,-54.68
1510.52,-54.674
1510.54,-54.667
1510.56,-54.651
1510.58,-54.637
1510.6,-54.627
1510.62,-54.623
1510.64,-54.61
1510.66,-54.596
1510.68,-54.584
1510.7,-54.575
1510.72,-54.565
1510.74,-54.552
1510.76,-54.541
1510.78,-54.533
1510.8,-54.518
1510.82,-54.512
1510.84,-54.498
1510.86,-54.493
1510.88,-54.48
1510.9,-54.469
1510.92,-54.46
1510.94,-54.453
1510.96,-54.436
1510.98,-54.431
1511,-54.421
1511.02,-54.408
1511.04,-54.393
1511.06,-54.388
1511.08,-54.373
1511.1,-54.362
1511.12,-54.346
1511.14,-54.338
1511.16,-54.327
1511.18,-54.319
1511.2,-54.303
1511.22,-54.293
1511.24,-54.283
1511.26,-54.275
1511.28,-54.262
1511.3,-54.255
1511.32,-54.238
1511.34,-54.229
1511.36,-54.221
1511.38,-54.208
1511.4,-54.189
1511.42,-54.185
1511.44,-54.169
1511.46,-54.158
1511.48,-54.146
1511.5,-54.137
1511.52,-54.123
1511.54,-54.115
1511.56,-54.096
1511.58,-54.093
1511.6,-54.083
1511.62,-54.07
1511.64,-54.059
1511.66,-54.04
1511.68,-54.034
1511.7,-54.021
1511.72,-54.012
1511.74,-53.999
1511.76,-53.986
1511.78,-53.976
1511.8,-53.966
1511.82,-53.957
1511.84,-53.944
1511.86,-53.934
1511.88,-53.924
1511.9,-53.908
1511.92,-53.9
1511.94,-53.887
1511.96,-53.88
1511.98,-53.868
1512,-53.853
1512.02,-53.843
1512.04,-53.835
1512.06,-53.823
1512.08,-53.812
1512.1,-53.795
1512.12,-53.783
1512.14,-53.776
1512.16,-53.761
1512.18,-53.756
1512.2,-53.742
1512.22,-53.728
1512.24,-53.719
1512.26,-53.708
1512.28,-53.692
1512.3,-53.685
1512.32,-53.671
1512.34,-53.658
1512.36,-53.646
1512.38,-53.636
1512.4,-53.624
1512.42,-53.61
1512.44,-53.595
1512.46,-53.593
1512.48,-53.574
1512.5,-53.559
1512.52,-53.553
1512.54,-53.539
1512.56,-53.523
1512.58,-53.513
1512.6,-53.501
1512.62,-53.487
1512.64,-53.478
1512.66,-53.465
1512.68,-53.452
1512.7,-53.437
1512.72,-53.434
1512.74,-53.42
1512.76,-53.408
1512.78,-53.396
1512.8,-53.383
1512.82,-53.375
1512.84,-53.361
1512.86,-53.347
1512.88,-53.339
1512.9,-53.323
1512.92,-53.313
1512.94,-53.302
1512.96,-53.29
1512.98,-53.272
1513,-53.262
1513.02,-53.248
1513.04,-53.24
1513.06,-53.231
1513.08,-53.214
1513.1,-53.2
1513.12,-53.188
1513.14,-53.174
1513.16,-53.163
1513.18,-53.147
1513.2,-53.139
1513.22,-53.124
1513.24,-53.111
1513.26,-53.104
1513.28,-53.093
1513.3,-53.071
1513.32,-53.06
1513.34,-53.048
1513.36,-53.037
1513.38,-53.025
1513.4,-53.01
1513.42,-52.998
1513.44,-52.982
1513.46,-52.971
1513.48,-52.962
1513.5,-52.945
1513.52,-52.929
1513.54,-52.919
1513.56,-52.907
1513.58,-52.899
1513.6,-52.883
1513.62,-52.87
1513.64,-52.858
1513.66,-52.843
1513.68,-52.833
1513.7,-52.819
1513.72,-52.807
1513.74,-52.795
1513.76,-52.788
1513.78,-52.77
1513.8,-52.758
1513.82,-52.75
1513.84,-52.731
1513.86,-52.724
1513.88,-52.711
1513.9,-52.689
1513.92,-52.679
1513.94,-52.669
1513.96,-52.653
1513.98,-52.641
1514,-52.628
1514.02,-52.614
1514.04,-52.596
1514.06,-52.58
1514.08,-52.573
1514.1,-52.556
1514.12,-52.544
1514.14,-52.535
1514.16,-52.522
1514.18,-52.505
1514.2,-52.492
1514.22,-52.482
1514.24,-52.467
1514.26,-52.454
1514.28,-52.439
1514.3,-52.424
1514.32,-52.412
1514.34,-52.395
1514.36,-52.385
1514.38,-52.369
1514.4,-52.356
1514.42,-52.339
1514.44,-52.329
1514.46,-52.317
1514.48,-52.303
1514.5,-52.29
1514.52,-52.276
1514.54,-52.265
1514.56,-52.248
1514.58,-52.238
1514.6,-52.225
1514.62,-52.209
1514.64,-52.198
1514.66,-52.189
1514.68,-52.168
1514.7,-52.158
1514.72,-52.147
1514.74,-52.131
1514.76,-52.12
1514.78,-52.103
1514.8,-52.09
1514.82,-52.078
1514.84,-52.063
1514.86,-52.052
1514.88,-52.032
1514.9,-52.019
1514.92,-52.003
1514.94,-51.995
1514.96,-51.976
1514.98,-51.961
1515,-51.947
1515.02,-51.934
1515.04,-51.919
1515.06,-51.905
1515.08,-51.886
1515.1,-51.873
1515.12,-51.86
1515.14,-51.846
1515.16,-51.831
1515.18,-51.813
1515.2,-51.801
1515.22,-51.785
1515.24,-51.77
1515.26,-51.754
1515.28,-51.738
1515.3,-51.728
1515.32,-51.713
1515.34,-51.696
1515.36,-51.675
1515.38,-51.669
1515.4,-51.656
1515.42,-51.639
1515.44,-51.625
1515.46,-51.615
1515.48,-51.6
1515.5,-51.582
1515.52,-51.566
1515.54,-51.553
1515.56,-51.541
1515.58,-51.522
1515.6,-51.512
1515.62,-51.493
1515.64,-51.485
1515.66,-51.467
1515.68,-51.455
1515.7,-51.439
1515.72,-51.423
1515.74,-51.411
1515.76,-51.392
1515.78,-51.376
1515.8,-51.365
1515.82,-51.351
1515.84,-51.331
1515.86,-51.317
1515.88,-51.3
1515.9,-51.283
1515.92,-51.267
1515.94,-51.252
1515.96,-51.235
1515.98,-51.22
1516,-51.2
1516.02,-51.184
1516.04,-51.168
1516.06,-51.15
1516.08,-51.133
1516.1,-51.115
1516.12,-51.098
1516.14,-51.086
1516.16,-51.07
1516.18,-51.054
1516.2,-51.036
1516.22,-51.017
1516.24,-51.004
1516.26,-50.991
1516.28,-50.974
1516.3,-50.956
1516.32,-50.945
1516.34,-50.924
1516.36,-50.906
1516.38,-50.889
1516.4,-50.873
1516.42,-50.854
1516.44,-50.837
1516.46,-50.821
1516.48,-50.801
1516.5,-50.784
1516.52,-50.773
1516.54,-50.752
1516.56,-50.736
1516.58,-50.721
1516.6,-50.701
1516.62,-50.682
1516.64,-50.664
1516.66,-50.645
1516.68,-50.628
1516.7,-50.61
1516.72,-50.595
1516.74,-50.578
1516.76,-50.563
1516.78,-50.542
1516.8,-50.525
1516.82,-50.509
1516.84,-50.493
1516.86,-50.472
1516.88,-50.457
1516.9,-50.438
1516.92,-50.42
1516.94,-50.401
1516.96,-50.381
1516.98,-50.364
1517,-50.345
1517.02,-50.331
1517.04,-50.311
1517.06,-50.292
1517.08,-50.277
1517.1,-50.256
1517.12,-50.241
1517.14,-50.223
1517.16,-50.204
1517.18,-50.186
1517.2,-50.17
1517.22,-50.155
1517.24,-50.136
1517.26,-50.116
1517.28,-50.098
1517.3,-50.08
1517.32,-50.059
1517.34,-50.046
1517.36,-50.023
1517.38,-50.007
1517.4,-49.991
1517.42,-49.969
1517.44,-49.954
1517.46,-49.932
1517.48,-49.916
1517.5,-49.898
1517.52,-49.882
1517.54,-49.861
1517.56,-49.843
1517.58,-49.828
1517.6,-49.809
1517.62,-49.787
1517.64,-49.768
1517.66,-49.744
1517.68,-49.723
1517.7,-49.701
1517.72,-49.68
1517.74,-49.66
1517.76,-49.643
1517.78,-49.617
1517.8,-49.599
1517.82,-49.58
1517.84,-49.56
1517.86,-49.538
1517.88,-49.512
1517.9,-49.492
1517.92,-49.474
1517.94,-49.452
1517.96,-49.437
1517.98,-49.41
1518,-49.385
1518.02,-49.366
1518.04,-49.344
1518.06,-49.324
1518.08,-49.301
1518.1,-49.281
1518.12,-49.259
1518.14,-49.236
1518.16,-49.217
1518.18,-49.196
1518.2,-49.176
1518.22,-49.154
1518.24,-49.131
1518.26,-49.113
1518.28,-49.091
1518.3,-49.069
1518.32,-49.048
1518.34,-49.027
1518.36,-49.006
1518.38,-48.984
1518.4,-48.964
1518.42,-48.941
1518.44,-48.919
1518.46,-48.897
1518.48,-48.874
1518.5,-48.851
1518.52,-48.833
1518.54,-48.81
1518.56,-48.783
1518.58,-48.762
1518.6,-48.738
1518.62,-48.719
1518.64,-48.689
1518.66,-48.666
1518.68,-48.642
1518.7,-48.62
1518.72,-48.598
1518.74,-48.576
1518.76,-48.552
1518.78,-48.527
1518.8,-48.502
1518.82,-48.477
1518.84,-48.451
1518.86,-48.427
1518.88,-48.402
1518.9,-48.381
1518.92,-48.355
1518.94,-48.334
1518.96,-48.309
1518.98,-48.283
1519,-48.258
1519.02,-48.233
1519.04,-48.209
1519.06,-48.184
1519.08,-48.157
1519.1,-48.133
1519.12,-48.114
1519.14,-48.088
1519.16,-48.054
1519.18,-48.03
1519.2,-48.004
1519.22,-47.98
1519.24,-47.95
1519.26,-47.927
1519.28,-47.903
1519.3,-47.874
1519.32,-47.849
1519.34,-47.823
1519.36,-47.801
1519.38,-47.773
1519.4,-47.749
1519.42,-47.725
1519.44,-47.7
1519.46,-47.669
1519.48,-47.645
1519.5,-47.62
1519.52,-47.585
1519.54,-47.561
1519.56,-47.54
1519.58,-47.509
1519.6,-47.476
1519.62,-47.451
1519.64,-47.422
1519.66,-47.392
1519.68,-47.361
1519.7,-47.334
1519.72,-47.307
1519.74,-47.281
1519.76,-47.25
1519.78,-47.222
1519.8,-47.193
1519.82,-47.167
1519.84,-47.135
1519.86,-47.102
1519.88,-47.076
1519.9,-47.046
1519.92,-47.022
1519.94,-46.989
1519.96,-46.959
1519.98,-46.932
1520,-46.897
1520.02,-46.873
1520.04,-46.839
1520.06,-46.808
1520.08,-46.78
1520.1,-46.747
1520.12,-46.715
1520.14,-46.685
1520.16,-46.654
1520.18,-46.623
1520.2,-46.594
1520.22,-46.564
1520.24,-46.535
1520.26,-46.504
1520.28,-46.475
1520.3,-46.441
1520.32,-46.407
1520.34,-46.38
1520.36,-46.348
1520.38,-46.316
1520.4,-46.285
1520.42,-46.253
1520.44,-46.222
1520.46,-46.189
1520.48,-46.16
1520.5,-46.13
1520.52,-46.092
1520.54,-46.061
1520.56,-46.03
1520.58,-45.999
1520.6,-45.963
1520.62,-45.931
1520.64,-45.897
1520.66,-45.862
1520.68,-45.83
1520.7,-45.796
1520.72,-45.763
1520.74,-45.726
1520.76,-45.695
1520.78,-45.659
1520.8,-45.621
1520.82,-45.588
1520.84,-45.555
1520.86,-45.52
1520.88,-45.488
1520.9,-45.452
1520.92,-45.414
1520.94,-45.379
1520.96,-45.342
1520.98,-45.303
1521,-45.27
1521.02,-45.236
1521.04,-45.202
1521.06,-45.163
1521.08,-45.131
1521.1,-45.094
1521.12,-45.053
1521.14,-45.017
1521.16,-44.983
1521.18,-44.946
1521.2,-44.911
1521.22,-44.878
1521.24,-44.838
1521.26,-44.803
1521.28,-44.766
1521.3,-44.733
1521.32,-44.692
1521.34,-44.657
1521.36,-44.624
1521.38,-44.582
1521.4,-44.548
1521.42,-44.512
1521.44,-44.473
1521.46,-44.432
1521.48,-44.395
1521.5,-44.359
1521.52,-44.316
1521.54,-44.28
1521.56,-44.245
1521.58,-44.207
1521.6,-44.167
1521.62,-44.124
1521.64,-44.083
1521.66,-44.043
1521.68,-44.007
1521.7,-43.971
1521.72,-43.931
1521.74,-43.894
1521.76,-43.852
1521.78,-43.812
1521.8,-43.774
1521.82,-43.735
1521.84,-43.695
1521.86,-43.657
1521.88,-43.616
1521.9,-43.576
1521.92,-43.537
1521.94,-43.498
1521.96,-43.461
1521.98,-43.423
1522,-43.383
1522.02,-43.344
1522.04,-43.304
1522.06,-43.265
1522.08,-43.227
1522.1,-43.186
1522.12,-43.145
1522.14,-43.102
1522.16,-43.062
1522.18,-43.022
1522.2,-42.982
1522.22,-42.943
1522.24,-42.902
1522.26,-42.863
1522.28,-42.818
1522.3,-42.778
1522.32,-42.739
1522.34,-42.698
1522.36,-42.66
1522.38,-42.613
1522.4,-42.572
1522.42,-42.534
1522.44,-42.49
1522.46,-42.447
1522.48,-42.404
1522.5,-42.364
1522.52,-42.321
1522.54,-42.279
1522.56,-42.236
1522.58,-42.194
1522.6,-42.15
1522.62,-42.106
1522.64,-42.063
1522.66,-42.022
1522.68,-41.981
1522.7,-41.94
1522.72,-41.9
1522.74,-41.858
1522.76,-41.816
1522.78,-41.774
1522.8,-41.731
1522.82,-41.689
1522.84,-41.648
1522.86,-41.609
1522.88,-41.566
1522.9,-41.523
1522.92,-41.482
1522.94,-41.439
1522.96,-41.397
1522.98,-41.356
1523,-41.314
1523.02,-41.274
1523.04,-41.233
1523.06,-41.195
1523.08,-41.152
1523.1,-41.109
1523.12,-41.066
1523.14,-41.026
1523.16,-40.983
1523.18,-40.942
1523.2,-40.903
1523.22,-40.864
1523.24,-40.824
1523.26,-40.777
1523.28,-40.733
1523.3,-40.689
1523.32,-40.652
1523.34,-40.61
1523.36,-40.564
1523.38,-40.52
1523.4,-40.478
1523.42,-40.436
1523.44,-40.394
1523.46,-40.353
1523.48,-40.312
1523.5,-40.27
1523.52,-40.231
1523.54,-40.188
1523.56,-40.138
1523.58,-40.1
1523.6,-40.063
1523.62,-40.013
1523.64,-39.973
1523.66,-39.931
1523.68,-39.893
1523.7,-39.85
1523.72,-39.809
1523.74,-39.766
1523.76,-39.726
1523.78,-39.683
1523.8,-39.642
1523.82,-39.602
1523.84,-39.561
1523.86,-39.519
1523.88,-39.48
1523.9,-39.435
1523.92,-39.395
1523.94,-39.35
1523.96,-39.309
1523.98,-39.276
1524,-39.235
1524.02,-39.195
1524.04,-39.153
1524.06,-39.107
1524.08,-39.064
1524.1,-39.019
1524.12,-38.991
1524.14,-38.953
1524.16,-38.913
1524.18,-38.872
1524.2,-38.819
1524.22,-38.774
1524.24,-38.732
1524.26,-38.697
1524.28,-38.655
1524.3,-38.618
1524.32,-38.579
1524.34,-38.54
1524.36,-38.496
1524.38,-38.461
1524.4,-38.419
1524.42,-38.38
1524.44,-38.342
1524.46,-38.305
1524.48,-38.265
1524.5,-38.212
1524.52,-38.184
1524.54,-38.139
1524.56,-38.098
1524.58,-38.06
1524.6,-38.02
1524.62,-37.984
1524.64,-37.942
1524.66,-37.901
1524.68,-37.861
1524.7,-37.824
1524.72,-37.781
1524.74,-37.74
1524.76,-37.703
1524.78,-37.664
1524.8,-37.621
1524.82,-37.588
1524.84,-37.546
1524.86,-37.505
1524.88,-37.464
1524.9,-37.426
1524.92,-37.394
1524.94,-37.355
1524.96,-37.317
1524.98,-37.278
1525,-37.24
1525.02,-37.198
1525.04,-37.158
1525.06,-37.128
1525.08,-37.094
1525.1,-37.057
1525.12,-37.014
1525.14,-36.97
1525.16,-36.928
1525.18,-36.893
1525.2,-36.854
1525.22,-36.813
1525.24,-36.78
1525.26,-36.743
1525.28,-36.704
1525.3,-36.669
1525.32,-36.631
1525.34,-36.591
1525.36,-36.555
1525.38,-36.52
1525.4,-36.487
1525.42,-36.438
1525.44,-36.401
1525.46,-36.379
1525.48,-36.326
1525.5,-36.293
1525.52,-36.257
1525.54,-36.223
1525.56,-36.188
1525.58,-36.148
1525.6,-36.114
1525.62,-36.083
1525.64,-36.045
1525.66,-36.005
1525.68,-35.968
1525.7,-35.929
1525.72,-35.889
1525.74,-35.851
1525.76,-35.814
1525.78,-35.776
1525.8,-35.734
1525.82,-35.706
1525.84,-35.666
1525.86,-35.624
1525.88,-35.585
1525.9,-35.548
1525.92,-35.507
1525.94,-35.465
1525.96,-35.433
1525.98,-35.407
1526,-35.374
1526.02,-35.337
1526.04,-35.301
1526.06,-35.258
1526.08,-35.214
1526.1,-35.178
1526.12,-35.147
1526.14,-35.111
1526.16,-35.075
1526.18,-35.046
1526.2,-35.01
1526.22,-34.977
1526.24,-34.94
1526.26,-34.903
1526.28,-34.87
1526.3,-34.837
1526.32,-34.8
1526.34,-34.765
1526.36,-34.717
1526.38,-34.694
1526.4,-34.652
1526.42,-34.617
1526.44,-34.587
1526.46,-34.556
1526.48,-34.517
1526.5,-34.479
1526.52,-34.443
1526.54,-34.412
1526.56,-34.378
1526.58,-34.343
1526.6,-34.308
1526.62,-34.274
1526.64,-34.243
1526.66,-34.211
1526.68,-34.176
1526.7,-34.145
1526.72,-34.104
1526.74,-34.078
1526.76,-34.04
1526.78,-34.006
1526.8,-33.971
1526.82,-33.933
1526.84,-33.896
1526.86,-33.856
1526.88,-33.815
1526.9,-33.789
1526.92,-33.755
1526.94,-33.717
1526.96,-33.678
1526.98,-33.639
1527,-33.595
1527.02,-33.551
1527.04,-33.513
1527.06,-33.481
1527.08,-33.44
1527.1,-33.402
1527.12,-33.365
1527.14,-33.327
1527.16,-33.29
1527.18,-33.256
1527.2,-33.218
1527.22,-33.183
1527.24,-33.148
1527.26,-33.116
1527.28,-33.074
1527.3,-33.037
1527.32,-33.012
1527.34,-32.973
1527.36,-32.939
1527.38,-32.904
1527.4,-32.873
1527.42,-32.844
1527.44,-32.81
1527.46,-32.775
1527.48,-32.741
1527.5,-32.707
1527.52,-32.67
1527.54,-32.635
1527.56,-32.597
1527.58,-32.558
1527.6,-32.524
1527.62,-32.487
1527.64,-32.449
1527.66,-32.414
1527.68,-32.378
1527.7,-32.347
1527.72,-32.307
1527.74,-32.268
1527.76,-32.232
1527.78,-32.197
1527.8,-32.154
1527.82,-32.119
1527.84,-32.089
1527.86,-32.053
1527.88,-32.018
1527.9,-31.983
1527.92,-31.948
1527.94,-31.906
1527.96,-31.864
1527.98,-31.832
1528,-31.797
1528.02,-31.758
1528.04,-31.723
1528.06,-31.686
1528.08,-31.649
1528.1,-31.61
1528.12,-31.571
1528.14,-31.532
1528.16,-31.495
1528.18,-31.457
1528.2,-31.42
1528.22,-31.379
1528.24,-31.35
1528.26,-31.308
1528.28,-31.273
1528.3,-31.243
1528.32,-31.206
1528.34,-31.173
1528.36,-31.144
1528.38,-31.111
1528.4,-31.083
1528.42,-31.051
1528.44,-31.018
1528.46,-30.986
1528.48,-30.953
1528.5,-30.919
1528.52,-30.883
1528.54,-30.849
1528.56,-30.818
1528.58,-30.783
1528.6,-30.749
1528.62,-30.715
1528.64,-30.68
1528.66,-30.639
1528.68,-30.6
1528.7,-30.562
1528.72,-30.524
1528.74,-30.48
1528.76,-30.436
1528.78,-30.396
1528.8,-30.349
1528.82,-30.308
1528.84,-30.273
1528.86,-30.228
1528.88,-30.186
1528.9,-30.144
1528.92,-30.104
1528.94,-30.069
1528.96,-30.03
1528.98,-29.987
1529,-29.948
1529.02,-29.908
1529.04,-29.865
1529.06,-29.824
1529.08,-29.78
1529.1,-29.74
1529.12,-29.698
1529.14,-29.659
1529.16,-29.616
1529.18,-29.581
1529.2,-29.547
1529.22,-29.511
1529.24,-29.476
1529.26,-29.44
1529.28,-29.403
1529.3,-29.365
1529.32,-29.326
1529.34,-29.286
1529.36,-29.249
1529.38,-29.212
1529.4,-29.176
1529.42,-29.131
1529.44,-29.09
1529.46,-29.048
1529.48,-29.01
1529.5,-28.97
1529.52,-28.929
1529.54,-28.886
1529.56,-28.85
1529.58,-28.811
1529.6,-28.77
1529.62,-28.733
1529.64,-28.701
1529.66,-28.657
1529.68,-28.622
1529.7,-28.596
1529.72,-28.555
1529.74,-28.519
1529.76,-28.485
1529.78,-28.444
1529.8,-28.406
1529.82,-28.374
1529.84,-28.343
1529.86,-28.311
1529.88,-28.273
1529.9,-28.234
1529.92,-28.194
1529.94,-28.159
1529.96,-28.121
1529.98,-28.102
1530,-28.059
1530.02,-28.049
1530.04,-28.052
1530.06,-28.04
1530.08,-27.969
1530.1,-27.91
1530.12,-27.853
1530.14,-27.814
1530.16,-27.784
1530.18,-27.806
1530.2,-27.79
1530.22,-27.726
1530.24,-27.661
1530.26,-27.629
1530.28,-27.591
1530.3,-27.543
1530.32,-27.553
1530.34,-27.628
1530.36,-27.609
1530.38,-27.586
1530.4,-27.508
1530.42,-27.415
1530.44,-27.4
1530.46,-27.381
1530.48,-27.401
1530.5,-27.413
1530.52,-27.415
1530.54,-27.394
1530.56,-27.321
1530.58,-27.29
1530.6,-27.181
1530.62,-27.141
1530.64,-27.065
1530.66,-26.984
1530.68,-26.98
1530.7,-26.965
1530.72,-26.987
1530.74,-26.966
1530.76,-26.975
1530.78,-26.95
1530.8,-26.892
1530.82,-26.863
1530.84,-26.797
1530.86,-26.786
1530.88,-26.751
1530.9,-26.743
1530.92,-26.761
1530.94,-26.672
1530.96,-26.615
1530.98,-26.448
1531,-26.407
1531.02,-26.327
1531.04,-26.365
1531.06,-26.447
1531.08,-26.346
1531.1,-26.301
1531.12,-26.358
1531.14,-26.261
1531.16,-26.168
1531.18,-26.172
1531.2,-26.142
1531.22,-26.113
1531.24,-26.005
1531.26,-25.983
1531.28,-26.002
1531.3,-25.93
1531.32,-25.993
1531.34,-25.948
1531.36,-25.914
1531.38,-25.889
1531.4,-25.758
1531.42,-25.799
1531.44,-25.774
1531.46,-25.749
1531.48,-25.693
1531.5,-25.618
1531.52,-25.618
1531.54,-25.539
1531.56,-25.595
1531.58,-25.57
1531.6,-25.553
1531.62,-25.379
1531.64,-25.144
1531.66,-24.879
1531.68,-25.138
1531.7,-24.779
1531.72,-23.855
1531.74,-24.493
1531.76,-24.764
1531.78,-23.648
1531.8,-22.961
1531.82,-22.893
1531.84,-23.951
1531.86,-23.751
1531.88,-24.878
1531.9,-25.036
1531.92,-25.175
1531.94,-25.348
1531.96,-25.208
1531.98,-25.16
1532,-24.9
1532.02,-25.051
1532.04,-25.179
1532.06,-25.367
1532.08,-25.477
1532.1,-25.461
1532.12,-25.453
1532.14,-25.531
1532.16,-25.53
1532.18,-25.605
1532.2,-25.626
1532.22,-25.632
1532.24,-25.686
1532.26,-25.724
1532.28,-25.771
1532.3,-25.576
1532.32,-25.833
1532.34,-25.888
1532.36,-25.923
1532.38,-26
1532.4,-26.042
1532.42,-26.05
1532.44,-26.094
1532.46,-26.116
1532.48,-26.19
1532.5,-26.172
1532.52,-26.251
1532.54,-26.192
1532.56,-26.293
1532.58,-26.386
1532.6,-26.363
1532.62,-26.371
1532.64,-26.441
1532.66,-26.444
1532.68,-26.456
1532.7,-26.526
1532.72,-26.561
1532.74,-26.527
1532.76,-26.592
1532.78,-26.647
1532.8,-26.563
1532.82,-26.658
1532.84,-26.626
1532.86,-26.675
1532.88,-26.786
1532.9,-26.868
1532.92,-26.959
1532.94,-26.985
1532.96,-27.054
1532.98,-27.081
1533,-27.151
1533.02,-27.19
1533.04,-27.272
1533.06,-27.305
1533.08,-27.27
1533.1,-27.26
1533.12,-27.352
1533.14,-27.445
1533.16,-27.516
1533.18,-27.537
1533.2,-27.556
1533.22,-27.603
1533.24,-27.61
1533.26,-27.632
1533.28,-27.656
1533.3,-27.66
1533.32,-27.732
1533.34,-27.768
1533.36,-27.804
1533.38,-27.83
1533.4,-27.837
1533.42,-27.859
1533.44,-27.921
1533.46,-27.943
1533.48,-28.016
1533.5,-28.049
1533.52,-28.1
1533.54,-28.077
1533.56,-28.133
1533.58,-28.171
1533.6,-28.259
1533.62,-28.354
1533.64,-28.412
1533.66,-28.434
1533.68,-28.451
1533.7,-28.476
1533.72,-28.53
1533.74,-28.656
1533.76,-28.697
1533.78,-28.794
1533.8,-28.848
1533.82,-28.87
1533.84,-28.924
1533.86,-28.987
1533.88,-29.026
1533.9,-29.07
1533.92,-29.144
1533.94,-29.202
1533.96,-29.243
1533.98,-29.301
1534,-29.412
1534.02,-29.445
1534.04,-29.479
1534.06,-29.509
1534.08,-29.564
1534.1,-29.642
1534.12,-29.693
1534.14,-29.746
1534.16,-29.811
1534.18,-29.857
1534.2,-29.913
1534.22,-29.969
1534.24,-30.028
1534.26,-30.083
1534.28,-30.139
1534.3,-30.198
1534.32,-30.25
1534.34,-30.305
1534.36,-30.361
1534.38,-30.414
1534.4,-30.463
1534.42,-30.517
1534.44,-30.568
1534.46,-30.617
1534.48,-30.66
1534.5,-30.706
1534.52,-30.754
1534.54,-30.802
1534.56,-30.854
1534.58,-30.908
1534.6,-30.959
1534.62,-31.015
1534.64,-31.066
1534.66,-31.119
1534.68,-31.175
1534.7,-31.234
1534.72,-31.287
1534.74,-31.344
1534.76,-31.402
1534.78,-31.458
1534.8,-31.508
1534.82,-31.564
1534.84,-31.62
1534.86,-31.674
1534.88,-31.728
1534.9,-31.782
1534.92,-31.838
1534.94,-31.889
1534.96,-31.94
1534.98,-31.99
1535,-32.04
1535.02,-32.092
1535.04,-32.143
1535.06,-32.194
1535.08,-32.248
1535.1,-32.298
1535.12,-32.347
1535.14,-32.396
1535.16,-32.445
1535.18,-32.495
1535.2,-32.545
1535.22,-32.598
1535.24,-32.648
1535.26,-32.695
1535.28,-32.746
1535.3,-32.79
1535.32,-32.835
1535.34,-32.881
1535.36,-32.932
1535.38,-32.98
1535.4,-33.027
1535.42,-33.072
1535.44,-33.119
1535.46,-33.163
1535.48,-33.209
1535.5,-33.258
1535.52,-33.304
1535.54,-33.351
1535.56,-33.396
1535.58,-33.44
1535.6,-33.482
1535.62,-33.528
1535.64,-33.568
1535.66,-33.607
1535.68,-33.651
1535.7,-33.692
1535.72,-33.735
1535.74,-33.776
1535.76,-33.817
1535.78,-33.857
1535.8,-33.899
1535.82,-33.939
1535.84,-33.984
1535.86,-34.028
1535.88,-34.072
1535.9,-34.115
1535.92,-34.155
1535.94,-34.196
1535.96,-34.237
1535.98,-34.279
1536,-34.322
1536.02,-34.365
1536.04,-34.405
1536.06,-34.446
1536.08,-34.487
1536.1,-34.526
1536.12,-34.568
1536.14,-34.61
1536.16,-34.65
1536.18,-34.689
1536.2,-34.729
1536.22,-34.764
1536.24,-34.8
1536.26,-34.837
1536.28,-34.873
1536.3,-34.908
1536.32,-34.945
1536.34,-34.982
1536.36,-35.02
1536.38,-35.056
1536.4,-35.089
1536.42,-35.125
1536.44,-35.159
1536.46,-35.197
1536.48,-35.229
1536.5,-35.263
1536.52,-35.297
1536.54,-35.332
1536.56,-35.365
1536.58,-35.399
1536.6,-35.431
1536.62,-35.463
1536.64,-35.499
1536.66,-35.531
1536.68,-35.564
1536.7,-35.597
1536.72,-35.626
1536.74,-35.658
1536.76,-35.689
1536.78,-35.719
1536.8,-35.75
1536.82,-35.781
1536.84,-35.813
1536.86,-35.843
1536.88,-35.876
1536.9,-35.906
1536.92,-35.937
1536.94,-35.965
1536.96,-35.996
1536.98,-36.025
1537,-36.055
1537.02,-36.083
1537.04,-36.114
1537.06,-36.141
1537.08,-36.168
1537.1,-36.196
1537.12,-36.227
1537.14,-36.251
1537.16,-36.279
1537.18,-36.307
1537.2,-36.335
1537.22,-36.362
1537.24,-36.387
1537.26,-36.413
1537.28,-36.44
1537.3,-36.467
1537.32,-36.493
1537.34,-36.518
1537.36,-36.544
1537.38,-36.569
1537.4,-36.592
1537.42,-36.613
1537.44,-36.639
1537.46,-36.661
1537.48,-36.684
1537.5,-36.707
1537.52,-36.729
1537.54,-36.752
1537.56,-36.772
1537.58,-36.793
1537.6,-36.816
1537.62,-36.84
1537.64,-36.859
1537.66,-36.881
1537.68,-36.902
1537.7,-36.921
1537.72,-36.941
1537.74,-36.962
1537.76,-36.981
1537.78,-37.001
1537.8,-37.021
1537.82,-37.041
1537.84,-37.058
1537.86,-37.075
1537.88,-37.093
1537.9,-37.11
1537.92,-37.128
1537.94,-37.144
1537.96,-37.163
1537.98,-37.179
1538,-37.194
1538.02,-37.211
1538.04,-37.226
1538.06,-37.237
1538.08,-37.253
1538.1,-37.268
1538.12,-37.284
1538.14,-37.298
1538.16,-37.312
1538.18,-37.327
1538.2,-37.341
1538.22,-37.354
1538.24,-37.367
1538.26,-37.381
1538.28,-37.395
1538.3,-37.408
1538.32,-37.421
1538.34,-37.432
1538.36,-37.447
1538.38,-37.462
1538.4,-37.472
1538.42,-37.488
1538.44,-37.501
1538.46,-37.513
1538.48,-37.525
1538.5,-37.537
1538.52,-37.55
1538.54,-37.562
1538.56,-37.573
1538.58,-37.586
1538.6,-37.598
1538.62,-37.609
1538.64,-37.619
1538.66,-37.631
1538.68,-37.642
1538.7,-37.653
1538.72,-37.665
1538.74,-37.674
1538.76,-37.682
1538.78,-37.692
1538.8,-37.701
1538.82,-37.709
1538.84,-37.717
1538.86,-37.727
1538.88,-37.739
1538.9,-37.745
1538.92,-37.754
1538.94,-37.764
1538.96,-37.773
1538.98,-37.776
1539,-37.782
1539.02,-37.788
1539.04,-37.796
1539.06,-37.804
1539.08,-37.811
1539.1,-37.819
1539.12,-37.825
1539.14,-37.832
1539.16,-37.84
1539.18,-37.846
1539.2,-37.854
1539.22,-37.862
1539.24,-37.867
1539.26,-37.872
1539.28,-37.879
1539.3,-37.883
1539.32,-37.888
1539.34,-37.895
1539.36,-37.9
1539.38,-37.906
1539.4,-37.911
1539.42,-37.915
1539.44,-37.919
1539.46,-37.924
1539.48,-37.93
1539.5,-37.933
1539.52,-37.938
1539.54,-37.942
1539.56,-37.946
1539.58,-37.95
1539.6,-37.954
1539.62,-37.958
1539.64,-37.962
1539.66,-37.968
1539.68,-37.971
1539.7,-37.974
1539.72,-37.976
1539.74,-37.978
1539.76,-37.981
1539.78,-37.984
1539.8,-37.984
1539.82,-37.987
1539.84,-37.988
1539.86,-37.99
1539.88,-37.991
1539.9,-37.992
1539.92,-37.994
1539.94,-37.996
1539.96,-37.995
1539.98,-37.994
1540,-37.996
1540.02,-37.996
1540.04,-37.996
1540.06,-37.995
1540.08,-37.995
1540.1,-37.994
1540.12,-37.993
1540.14,-37.994
1540.16,-37.993
1540.18,-37.993
1540.2,-37.993
1540.22,-37.992
1540.24,-37.991
1540.26,-37.992
1540.28,-37.991
1540.3,-37.991
1540.32,-37.991
1540.34,-37.991
1540.36,-37.99
1540.38,-37.989
1540.4,-37.987
1540.42,-37.985
1540.44,-37.985
1540.46,-37.984
1540.48,-37.982
1540.5,-37.982
1540.52,-37.98
1540.54,-37.979
1540.56,-37.976
1540.58,-37.976
1540.6,-37.973
1540.62,-37.972
1540.64,-37.971
1540.66,-37.968
1540.68,-37.967
1540.7,-37.966
1540.72,-37.965
1540.74,-37.962
1540.76,-37.959
1540.78,-37.957
1540.8,-37.954
1540.82,-37.951
1540.84,-37.949
1540.86,-37.947
1540.88,-37.945
1540.9,-37.943
1540.92,-37.94
1540.94,-37.939
1540.96,-37.938
1540.98,-37.936
1541,-37.933
1541.02,-37.932
1541.04,-37.929
1541.06,-37.926
1541.08,-37.921
1541.1,-37.92
1541.12,-37.915
1541.14,-37.911
1541.16,-37.907
1541.18,-37.904
1541.2,-37.9
1541.22,-37.898
1541.24,-37.893
1541.26,-37.888
1541.28,-37.885
1541.3,-37.88
1541.32,-37.878
1541.34,-37.872
1541.36,-37.87
1541.38,-37.867
1541.4,-37.862
1541.42,-37.86
1541.44,-37.856
1541.46,-37.852
1541.48,-37.848
1541.5,-37.845
1541.52,-37.841
1541.54,-37.837
1541.56,-37.835
1541.58,-37.83
1541.6,-37.826
1541.62,-37.823
1541.64,-37.819
1541.66,-37.815
1541.68,-37.809
1541.7,-37.803
1541.72,-37.798
1541.74,-37.793
1541.76,-37.789
1541.78,-37.784
1541.8,-37.778
1541.82,-37.773
1541.84,-37.769
1541.86,-37.764
1541.88,-37.76
1541.9,-37.757
1541.92,-37.751
1541.94,-37.748
1541.96,-37.744
1541.98,-37.738
1542,-37.736
1542.02,-37.73
1542.04,-37.724
1542.06,-37.718
1542.08,-37.715
1542.1,-37.711
1542.12,-37.706
1542.14,-37.703
1542.16,-37.699
1542.18,-37.697
1542.2,-37.692
1542.22,-37.689
1542.24,-37.683
1542.26,-37.678
1542.28,-37.674
1542.3,-37.67
1542.32,-37.665
1542.34,-37.66
1542.36,-37.657
1542.38,-37.654
1542.4,-37.651
1542.42,-37.646
1542.44,-37.641
1542.46,-37.636
1542.48,-37.633
1542.5,-37.629
1542.52,-37.627
1542.54,-37.622
1542.56,-37.62
1542.58,-37.616
1542.6,-37.61
1542.62,-37.602
1542.64,-37.598
1542.66,-37.597
1542.68,-37.594
1542.7,-37.588
1542.72,-37.585
1542.74,-37.581
1542.76,-37.579
1542.78,-37.573
1542.8,-37.569
1542.82,-37.563
1542.84,-37.559
1542.86,-37.556
1542.88,-37.55
1542.9,-37.546
1542.92,-37.542
1542.94,-37.538
1542.96,-37.535
1542.98,-37.532
1543,-37.528
1543.02,-37.524
1543.04,-37.521
1543.06,-37.517
1543.08,-37.513
1543.1,-37.511
1543.12,-37.507
1543.14,-37.503
1543.16,-37.499
1543.18,-37.495
1543.2,-37.492
1543.22,-37.489
1543.24,-37.486
1543.26,-37.485
1543.28,-37.481
1543.3,-37.479
1543.32,-37.476
1543.34,-37.473
1543.36,-37.468
1543.38,-37.465
1543.4,-37.462
1543.42,-37.462
1543.44,-37.459
1543.46,-37.454
1543.48,-37.452
1543.5,-37.448
1543.52,-37.444
1543.54,-37.439
1543.56,-37.435
1543.58,-37.434
1543.6,-37.428
1543.62,-37.423
1543.64,-37.418
1543.66,-37.414
1543.68,-37.412
1543.7,-37.407
1543.72,-37.404
1543.74,-37.4
1543.76,-37.397
1543.78,-37.392
1543.8,-37.386
1543.82,-37.383
1543.84,-37.379
1543.86,-37.374
1543.88,-37.369
1543.9,-37.365
1543.92,-37.363
1543.94,-37.361
1543.96,-37.357
1543.98,-37.354
1544,-37.351
1544.02,-37.35
1544.04,-37.347
1544.06,-37.344
1544.08,-37.343
1544.1,-37.341
1544.12,-37.337
1544.14,-37.335
1544.16,-37.333
1544.18,-37.333
1544.2,-37.331
1544.22,-37.331
1544.24,-37.329
1544.26,-37.329
1544.28,-37.327
1544.3,-37.325
1544.32,-37.324
1544.34,-37.323
1544.36,-37.323
1544.38,-37.322
1544.4,-37.322
1544.42,-37.319
1544.44,-37.317
1544.46,-37.316
1544.48,-37.316
1544.5,-37.315
1544.52,-37.314
1544.54,-37.312
1544.56,-37.309
1544.58,-37.308
1544.6,-37.306
1544.62,-37.303
1544.64,-37.301
1544.66,-37.298
1544.68,-37.296
1544.7,-37.292
1544.72,-37.29
1544.74,-37.288
1544.76,-37.285
1544.78,-37.282
1544.8,-37.281
1544.82,-37.276
1544.84,-37.275
1544.86,-37.273
1544.88,-37.27
1544.9,-37.267
1544.92,-37.265
1544.94,-37.262
1544.96,-37.26
1544.98,-37.258
1545,-37.254
1545.02,-37.251
1545.04,-37.249
1545.06,-37.245
1545.08,-37.243
1545.1,-37.242
1545.12,-37.241
1545.14,-37.24
1545.16,-37.238
1545.18,-37.235
1545.2,-37.234
1545.22,-37.234
1545.24,-37.232
1545.26,-37.229
1545.28,-37.227
1545.3,-37.226
1545.32,-37.225
1545.34,-37.225
1545.36,-37.225
1545.38,-37.227
1545.4,-37.227
1545.42,-37.225
1545.44,-37.226
1545.46,-37.227
1545.48,-37.227
1545.5,-37.229
1545.52,-37.229
1545.54,-37.229
1545.56,-37.229
1545.58,-37.231
1545.6,-37.231
1545.62,-37.23
1545.64,-37.231
1545.66,-37.233
1545.68,-37.236
1545.7,-37.235
1545.72,-37.239
1545.74,-37.241
1545.76,-37.242
1545.78,-37.245
1545.8,-37.246
1545.82,-37.248
1545.84,-37.249
1545.86,-37.252
1545.88,-37.254
1545.9,-37.256
1545.92,-37.258
1545.94,-37.261
1545.96,-37.263
1545.98,-37.265
1546,-37.268
1546.02,-37.27
1546.04,-37.272
1546.06,-37.273
1546.08,-37.276
1546.1,-37.279
1546.12,-37.281
1546.14,-37.285
1546.16,-37.289
1546.18,-37.291
1546.2,-37.293
1546.22,-37.294
1546.24,-37.294
1546.26,-37.296
1546.28,-37.297
1546.3,-37.298
1546.32,-37.298
1546.34,-37.3
1546.36,-37.3
1546.38,-37.301
1546.4,-37.302
1546.42,-37.303
1546.44,-37.304
1546.46,-37.307
1546.48,-37.31
1546.5,-37.31
1546.52,-37.312
1546.54,-37.317
1546.56,-37.318
1546.58,-37.323
1546.6,-37.324
1546.62,-37.328
1546.64,-37.332
1546.66,-37.335
1546.68,-37.339
1546.7,-37.34
1546.72,-37.345
1546.74,-37.349
1546.76,-37.352
1546.78,-37.352
1546.8,-37.356
1546.82,-37.359
1546.84,-37.362
1546.86,-37.366
1546.88,-37.369
1546.9,-37.376
1546.92,-37.38
1546.94,-37.383
1546.96,-37.386
1546.98,-37.388
1547,-37.393
1547.02,-37.395
1547.04,-37.398
1547.06,-37.403
1547.08,-37.407
1547.1,-37.408
1547.12,-37.41
1547.14,-37.409
1547.16,-37.412
1547.18,-37.415
1547.2,-37.419
1547.22,-37.42
1547.24,-37.422
1547.26,-37.426
1547.28,-37.429
1547.3,-37.431
1547.32,-37.434
1547.34,-37.437
1547.36,-37.438
1547.38,-37.44
1547.4,-37.441
1547.42,-37.443
1547.44,-37.444
1547.46,-37.445
1547.48,-37.448
1547.5,-37.449
1547.52,-37.451
1547.54,-37.455
1547.56,-37.456
1547.58,-37.459
1547.6,-37.461
1547.62,-37.463
1547.64,-37.465
1547.66,-37.468
1547.68,-37.469
1547.7,-37.472
1547.72,-37.473
1547.74,-37.477
1547.76,-37.48
1547.78,-37.484
1547.8,-37.485
1547.82,-37.488
1547.84,-37.491
1547.86,-37.493
1547.88,-37.495
1547.9,-37.497
1547.92,-37.499
1547.94,-37.503
1547.96,-37.503
1547.98,-37.505
1548,-37.506
1548.02,-37.508
1548.04,-37.509
1548.06,-37.512
1548.08,-37.515
1548.1,-37.516
1548.12,-37.517
1548.14,-37.518
1548.16,-37.521
1548.18,-37.522
1548.2,-37.525
1548.22,-37.526
1548.24,-37.531
1548.26,-37.535
1548.28,-37.534
1548.3,-37.538
1548.32,-37.537
1548.34,-37.539
1548.36,-37.54
1548.38,-37.54
1548.4,-37.542
1548.42,-37.542
1548.44,-37.543
1548.46,-37.543
1548.48,-37.546
1548.5,-37.546
1548.52,-37.548
1548.54,-37.551
1548.56,-37.553
1548.58,-37.556
1548.6,-37.559
1548.62,-37.562
1548.64,-37.564
1548.66,-37.565
1548.68,-37.569
1548.7,-37.573
1548.72,-37.576
1548.74,-37.578
1548.76,-37.581
1548.78,-37.585
1548.8,-37.591
1548.82,-37.596
1548.84,-37.6
1548.86,-37.604
1548.88,-37.608
1548.9,-37.613
1548.92,-37.618
1548.94,-37.622
1548.96,-37.627
1548.98,-37.63
1549,-37.635
1549.02,-37.64
1549.04,-37.643
1549.06,-37.647
1549.08,-37.651
1549.1,-37.654
1549.12,-37.658
1549.14,-37.662
1549.16,-37.665
1549.18,-37.667
1549.2,-37.672
1549.22,-37.673
1549.24,-37.677
1549.26,-37.679
1549.28,-37.68
1549.3,-37.684
1549.32,-37.686
1549.34,-37.69
1549.36,-37.692
1549.38,-37.695
1549.4,-37.698
1549.42,-37.698
1549.44,-37.701
1549.46,-37.705
1549.48,-37.705
1549.5,-37.707
1549.52,-37.712
1549.54,-37.713
1549.56,-37.714
1549.58,-37.72
1549.6,-37.721
1549.62,-37.722
1549.64,-37.723
1549.66,-37.725
1549.68,-37.728
1549.7,-37.73
1549.72,-37.733
1549.74,-37.735
1549.76,-37.736
1549.78,-37.738
1549.8,-37.74
1549.82,-37.744
1549.84,-37.742
1549.86,-37.744
1549.88,-37.746
1549.9,-37.748
1549.92,-37.75
1549.94,-37.75
1549.96,-37.754
1549.98,-37.755
1550,-37.757
1550.02,-37.76
1550.04,-37.762
1550.06,-37.765
1550.08,-37.766
1550.1,-37.768
1550.12,-37.77
1550.14,-37.774
1550.16,-37.778
1550.18,-37.781
1550.2,-37.784
1550.22,-37.788
1550.24,-37.791
1550.26,-37.795
1550.28,-37.799
1550.3,-37.803
1550.32,-37.804
1550.34,-37.809
1550.36,-37.812
1550.38,-37.815
1550.4,-37.816
1550.42,-37.82
1550.44,-37.822
1550.46,-37.823
1550.48,-37.827
1550.5,-37.831
1550.52,-37.835
1550.54,-37.838
1550.56,-37.842
1550.58,-37.844
1550.6,-37.848
1550.62,-37.849
1550.64,-37.851
1550.66,-37.852
1550.68,-37.855
1550.7,-37.858
1550.72,-37.861
1550.74,-37.865
1550.76,-37.867
1550.78,-37.87
1550.8,-37.87
1550.82,-37.873
1550.84,-37.876
1550.86,-37.878
1550.88,-37.881
1550.9,-37.883
1550.92,-37.886
1550.94,-37.888
1550.96,-37.89
1550.98,-37.891
1551,-37.893
1551.02,-37.894
1551.04,-37.896
1551.06,-37.9
1551.08,-37.901
1551.1,-37.904
1551.12,-37.907
1551.14,-37.908
1551.16,-37.912
1551.18,-37.913
1551.2,-37.916
1551.22,-37.922
1551.24,-37.924
1551.26,-37.931
1551.28,-37.932
1551.3,-37.936
1551.32,-37.939
1551.34,-37.944
1551.36,-37.948
1551.38,-37.951
1551.4,-37.957
1551.42,-37.958
1551.44,-37.96
1551.46,-37.962
1551.48,-37.964
1551.5,-37.967
1551.52,-37.97
1551.54,-37.972
1551.56,-37.976
1551.58,-37.978
1551.6,-37.981
1551.62,-37.985
1551.64,-37.988
1551.66,-37.987
1551.68,-37.991
1551.7,-37.993
1551.72,-37.996
1551.74,-37.999
1551.76,-38.001
1551.78,-38.005
1551.8,-38.004
1551.82,-38.008
1551.84,-38.01
1551.86,-38.011
1551.88,-38.012
1551.9,-38.013
1551.92,-38.016
1551.94,-38.015
1551.96,-38.017
1551.98,-38.018
1552,-38.02
1552.02,-38.023
1552.04,-38.023
1552.06,-38.027
1552.08,-38.03
1552.1,-38.03
1552.12,-38.032
1552.14,-38.035
1552.16,-38.037
1552.18,-38.038
1552.2,-38.038
1552.22,-38.039
1552.24,-38.041
1552.26,-38.043
1552.28,-38.045
1552.3,-38.048
1552.32,-38.051
1552.34,-38.053
1552.36,-38.053
1552.38,-38.056
1552.4,-38.057
1552.42,-38.06
1552.44,-38.061
1552.46,-38.062
1552.48,-38.063
1552.5,-38.066
1552.52,-38.069
1552.54,-38.067
1552.56,-38.07
1552.58,-38.072
1552.6,-38.072
1552.62,-38.072
1552.64,-38.074
1552.66,-38.074
1552.68,-38.076
1552.7,-38.078
1552.72,-38.079
1552.74,-38.081
1552.76,-38.082
1552.78,-38.08
1552.8,-38.079
1552.82,-38.079
1552.84,-38.079
1552.86,-38.078
1552.88,-38.077
1552.9,-38.079
1552.92,-38.078
1552.94,-38.078
1552.96,-38.079
1552.98,-38.079
1553,-38.081
1553.02,-38.083
1553.04,-38.082
1553.06,-38.084
1553.08,-38.085
1553.1,-38.083
1553.12,-38.082
1553.14,-38.083
1553.16,-38.085
1553.18,-38.086
1553.2,-38.087
1553.22,-38.085
1553.24,-38.085
1553.26,-38.086
1553.28,-38.089
1553.3,-38.085
1553.32,-38.086
1553.34,-38.087
1553.36,-38.086
1553.38,-38.087
1553.4,-38.089
1553.42,-38.088
1553.44,-38.09
1553.46,-38.092
1553.48,-38.093
1553.5,-38.091
1553.52,-38.091
1553.54,-38.092
1553.56,-38.093
1553.58,-38.094
1553.6,-38.095
1553.62,-38.094
1553.64,-38.097
1553.66,-38.095
1553.68,-38.098
1553.7,-38.099
1553.72,-38.099
1553.74,-38.1
1553.76,-38.1
1553.78,-38.102
1553.8,-38.103
1553.82,-38.104
1553.84,-38.104
1553.86,-38.105
1553.88,-38.107
1553.9,-38.112
1553.92,-38.111
1553.94,-38.109
1553.96,-38.11
1553.98,-38.112
1554,-38.112
1554.02,-38.114
1554.04,-38.115
1554.06,-38.117
1554.08,-38.119
1554.1,-38.121
1554.12,-38.123
1554.14,-38.124
1554.16,-38.126
1554.18,-38.128
1554.2,-38.13
1554.22,-38.132
1554.24,-38.134
1554.26,-38.136
1554.28,-38.136
1554.3,-38.133
1554.32,-38.136
1554.34,-38.139
1554.36,-38.141
1554.38,-38.14
1554.4,-38.139
1554.42,-38.141
1554.44,-38.143
1554.46,-38.145
1554.48,-38.144
1554.5,-38.145
1554.52,-38.147
1554.54,-38.147
1554.56,-38.147
1554.58,-38.147
1554.6,-38.15
1554.62,-38.151
1554.64,-38.15
1554.66,-38.147
1554.68,-38.149
1554.7,-38.152
1554.72,-38.151
1554.74,-38.153
1554.76,-38.157
1554.78,-38.157
1554.8,-38.158
1554.82,-38.16
1554.84,-38.161
1554.86,-38.163
1554.88,-38.164
1554.9,-38.166
1554.92,-38.168
1554.94,-38.17
1554.96,-38.172
1554.98,-38.175
1555,-38.177
1555.02,-38.179
1555.04,-38.18
1555.06,-38.183
1555.08,-38.183
1555.1,-38.184
1555.12,-38.187
1555.14,-38.19
1555.16,-38.191
1555.18,-38.193
1555.2,-38.193
1555.22,-38.194
1555.24,-38.196
1555.26,-38.198
1555.28,-38.197
1555.3,-38.197
1555.32,-38.2
1555.34,-38.201
1555.36,-38.202
1555.38,-38.202
1555.4,-38.202
1555.42,-38.203
1555.44,-38.205
1555.46,-38.204
1555.48,-38.206
1555.5,-38.206
1555.52,-38.208
1555.54,-38.211
1555.56,-38.212
1555.58,-38.213
1555.6,-38.215
1555.62,-38.216
1555.64,-38.219
1555.66,-38.222
1555.68,-38.223
1555.7,-38.223
1555.72,-38.226
1555.74,-38.227
1555.76,-38.228
1555.78,-38.232
1555.8,-38.231
1555.82,-38.233
1555.84,-38.235
1555.86,-38.238
1555.88,-38.24
1555.9,-38.241
1555.92,-38.24
1555.94,-38.243
1555.96,-38.246
1555.98,-38.247
1556,-38.248
1556.02,-38.25
1556.04,-38.253
1556.06,-38.254
1556.08,-38.255
1556.1,-38.256
1556.12,-38.257
1556.14,-38.262
1556.16,-38.263
1556.18,-38.264
1556.2,-38.266
1556.22,-38.268
1556.24,-38.27
1556.26,-38.272
1556.28,-38.274
1556.3,-38.273
1556.32,-38.276
1556.34,-38.276
1556.36,-38.276
1556.38,-38.279
1556.4,-38.279
1556.42,-38.279
1556.44,-38.278
1556.46,-38.28
1556.48,-38.28
1556.5,-38.282
1556.52,-38.283
1556.54,-38.285
1556.56,-38.287
1556.58,-38.287
1556.6,-38.289
1556.62,-38.29
1556.64,-38.292
1556.66,-38.294
1556.68,-38.296
1556.7,-38.296
1556.72,-38.3
1556.74,-38.302
1556.76,-38.304
1556.78,-38.305
1556.8,-38.306
1556.82,-38.309
1556.84,-38.312
1556.86,-38.313
1556.88,-38.318
1556.9,-38.32
1556.92,-38.324
1556.94,-38.328
1556.96,-38.329
1556.98,-38.331
1557,-38.334
1557.02,-38.336
1557.04,-38.342
1557.06,-38.344
1557.08,-38.347
1557.1,-38.347
1557.12,-38.352
1557.14,-38.354
1557.16,-38.359
1557.18,-38.361
1557.2,-38.366
1557.22,-38.37
1557.24,-38.371
1557.26,-38.375
1557.28,-38.382
1557.3,-38.384
1557.32,-38.389
1557.34,-38.394
1557.36,-38.4
1557.38,-38.404
1557.4,-38.41
1557.42,-38.416
1557.44,-38.42
1557.46,-38.425
1557.48,-38.431
1557.5,-38.435
1557.52,-38.439
1557.54,-38.443
1557.56,-38.448
1557.58,-38.452
1557.6,-38.457
1557.62,-38.462
1557.64,-38.467
1557.66,-38.471
1557.68,-38.474
1557.7,-38.48
1557.72,-38.487
1557.74,-38.49
1557.76,-38.497
1557.78,-38.502
1557.8,-38.507
1557.82,-38.51
1557.84,-38.513
1557.86,-38.515
1557.88,-38.52
1557.9,-38.525
1557.92,-38.531
1557.94,-38.533
1557.96,-38.537
1557.98,-38.541
1558,-38.545
1558.02,-38.552
1558.04,-38.556
1558.06,-38.56
1558.08,-38.566
1558.1,-38.572
1558.12,-38.576
1558.14,-38.579
1558.16,-38.588
1558.18,-38.592
1558.2,-38.599
1558.22,-38.603
1558.24,-38.61
1558.26,-38.617
1558.28,-38.622
1558.3,-38.629
1558.32,-38.633
1558.34,-38.64
1558.36,-38.646
1558.38,-38.654
1558.4,-38.661
1558.42,-38.665
1558.44,-38.672
1558.46,-38.678
1558.48,-38.687
1558.5,-38.693
1558.52,-38.702
1558.54,-38.709
1558.56,-38.715
1558.58,-38.722
1558.6,-38.729
1558.62,-38.737
1558.64,-38.746
1558.66,-38.752
1558.68,-38.758
1558.7,-38.766
1558.72,-38.776
1558.74,-38.782
1558.76,-38.788
1558.78,-38.797
1558.8,-38.807
1558.82,-38.813
1558.84,-38.818
1558.86,-38.827
1558.88,-38.832
1558.9,-38.84
1558.92,-38.848
1558.94,-38.854
1558.96,-38.862
1558.98,-38.87
1559,-38.877
1559.02,-38.885
1559.04,-38.893
1559.06,-38.899
1559.08,-38.908
1559.1,-38.914
1559.12,-38.923
1559.14,-38.932
1559.16,-38.941
1559.18,-38.948
1559.2,-38.957
1559.22,-38.967
1559.24,-38.975
1559.26,-38.985
1559.28,-38.994
1559.3,-39.005
1559.32,-39.013
1559.34,-39.023
1559.36,-39.03
1559.38,-39.039
1559.4,-39.048
1559.42,-39.056
1559.44,-39.065
1559.46,-39.073
1559.48,-39.08
1559.5,-39.089
1559.52,-39.099
1559.54,-39.11
1559.56,-39.118
1559.58,-39.127
1559.6,-39.136
1559.62,-39.147
1559.64,-39.153
1559.66,-39.161
1559.68,-39.172
1559.7,-39.18
1559.72,-39.188
1559.74,-39.197
1559.76,-39.208
1559.78,-39.219
1559.8,-39.228
1559.82,-39.24
1559.84,-39.248
1559.86,-39.261
1559.88,-39.27
1559.9,-39.278
1559.92,-39.291
1559.94,-39.3
1559.96,-39.309
1559.98,-39.318
1560,-39.329
1560.02,-39.339
1560.04,-39.35
1560.06,-39.36
1560.08,-39.371
1560.1,-39.38
1560.12,-39.388
1560.14,-39.397
1560.16,-39.406
1560.18,-39.415
1560.2,-39.422
1560.22,-39.431
1560.24,-39.441
1560.26,-39.452
1560.28,-39.461
1560.3,-39.472
1560.32,-39.482
1560.34,-39.49
1560.36,-39.502
1560.38,-39.514
1560.4,-39.524
1560.42,-39.535
1560.44,-39.547
1560.46,-39.558
1560.48,-39.569
1560.5,-39.581
1560.52,-39.592
1560.54,-39.602
1560.56,-39.617
1560.58,-39.629
1560.6,-39.637
1560.62,-39.651
1560.64,-39.662
1560.66,-39.675
1560.68,-39.685
1560.7,-39.699
1560.72,-39.712
1560.74,-39.724
1560.76,-39.735
1560.78,-39.746
1560.8,-39.761
1560.82,-39.773
1560.84,-39.785
1560.86,-39.798
1560.88,-39.812
1560.9,-39.825
1560.92,-39.837
1560.94,-39.85
1560.96,-39.866
1560.98,-39.873
1561,-39.891
1561.02,-39.901
1561.04,-39.915
1561.06,-39.926
1561.08,-39.94
1561.1,-39.953
1561.12,-39.968
1561.14,-39.983
1561.16,-39.996
1561.18,-40.012
1561.2,-40.024
1561.22,-40.037
1561.24,-40.051
1561.26,-40.065
1561.28,-40.079
1561.3,-40.095
1561.32,-40.111
1561.34,-40.123
1561.36,-40.137
1561.38,-40.147
1561.4,-40.159
1561.42,-40.172
1561.44,-40.188
1561.46,-40.202
1561.48,-40.212
1561.5,-40.226
1561.52,-40.241
1561.54,-40.254
1561.56,-40.266
1561.58,-40.28
1561.6,-40.293
1561.62,-40.307
1561.64,-40.321
1561.66,-40.335
1561.68,-40.346
1561.7,-40.361
1561.72,-40.375
1561.74,-40.388
1561.76,-40.399
1561.78,-40.414
1561.8,-40.428
1561.82,-40.442
1561.84,-40.458
1561.86,-40.471
1561.88,-40.484
1561.9,-40.499
1561.92,-40.513
1561.94,-40.527
1561.96,-40.542
1561.98,-40.556
1562,-40.57
1562.02,-40.584
1562.04,-40.598
1562.06,-40.613
1562.08,-40.63
1562.1,-40.645
1562.12,-40.66
1562.14,-40.675
1562.16,-40.69
1562.18,-40.707
1562.2,-40.721
1562.22,-40.737
1562.24,-40.754
1562.26,-40.77
1562.28,-40.784
1562.3,-40.801
1562.32,-40.817
1562.34,-40.833
1562.36,-40.846
1562.38,-40.863
1562.4,-40.879
1562.42,-40.894
1562.44,-40.908
1562.46,-40.925
1562.48,-40.938
1562.5,-40.953
1562.52,-40.966
1562.54,-40.982
1562.56,-41
1562.58,-41.013
1562.6,-41.027
1562.62,-41.045
1562.64,-41.061
1562.66,-41.077
1562.68,-41.093
1562.7,-41.108
1562.72,-41.126
1562.74,-41.141
1562.76,-41.157
1562.78,-41.173
1562.8,-41.188
1562.82,-41.203
1562.84,-41.219
1562.86,-41.237
1562.88,-41.254
1562.9,-41.271
1562.92,-41.289
1562.94,-41.306
1562.96,-41.324
1562.98,-41.34
1563,-41.356
1563.02,-41.374
1563.04,-41.391
1563.06,-41.408
1563.08,-41.427
1563.1,-41.443
1563.12,-41.46
1563.14,-41.477
1563.16,-41.492
1563.18,-41.511
1563.2,-41.527
1563.22,-41.544
1563.24,-41.559
1563.26,-41.577
1563.28,-41.594
1563.3,-41.611
1563.32,-41.627
1563.34,-41.646
1563.36,-41.662
1563.38,-41.68
1563.4,-41.696
1563.42,-41.714
1563.44,-41.731
1563.46,-41.75
1563.48,-41.766
1563.5,-41.785
1563.52,-41.802
1563.54,-41.817
1563.56,-41.835
1563.58,-41.852
1563.6,-41.869
1563.62,-41.886
1563.64,-41.905
1563.66,-41.922
1563.68,-41.938
1563.7,-41.955
1563.72,-41.974
1563.74,-41.992
1563.76,-42.009
1563.78,-42.027
1563.8,-42.044
1563.82,-42.061
1563.84,-42.078
1563.86,-42.095
1563.88,-42.112
1563.9,-42.128
1563.92,-42.146
1563.94,-42.165
1563.96,-42.182
1563.98,-42.198
1564,-42.215
1564.02,-42.234
1564.04,-42.248
1564.06,-42.266
1564.08,-42.284
1564.1,-42.3
1564.12,-42.315
1564.14,-42.333
1564.16,-42.351
1564.18,-42.367
1564.2,-42.384
1564.22,-42.405
1564.24,-42.423
1564.26,-42.441
1564.28,-42.458
1564.3,-42.478
1564.32,-42.496
1564.34,-42.515
1564.36,-42.531
1564.38,-42.551
1564.4,-42.57
1564.42,-42.588
1564.44,-42.607
1564.46,-42.624
1564.48,-42.646
1564.5,-42.663
1564.52,-42.683
1564.54,-42.701
1564.56,-42.718
1564.58,-42.737
1564.6,-42.755
1564.62,-42.773
1564.64,-42.792
1564.66,-42.81
1564.68,-42.83
1564.7,-42.848
1564.72,-42.868
1564.74,-42.886
1564.76,-42.903
1564.78,-42.92
1564.8,-42.942
1564.82,-42.96
1564.84,-42.977
1564.86,-42.998
1564.88,-43.015
1564.9,-43.034
1564.92,-43.052
1564.94,-43.069
1564.96,-43.09
1564.98,-43.108
1565,-43.128
1565.02,-43.147
1565.04,-43.165
1565.06,-43.182
1565.08,-43.201
1565.1,-43.218
1565.12,-43.238
1565.14,-43.256
1565.16,-43.276
1565.18,-43.294
1565.2,-43.312
1565.22,-43.33
1565.24,-43.348
1565.26,-43.365
1565.28,-43.385
1565.3,-43.404
1565.32,-43.423
1565.34,-43.441
1565.36,-43.458
1565.38,-43.476
1565.4,-43.493
1565.42,-43.515
1565.44,-43.535
1565.46,-43.552
1565.48,-43.571
1565.5,-43.591
1565.52,-43.61
1565.54,-43.629
1565.56,-43.648
1565.58,-43.667
1565.6,-43.687
1565.62,-43.706
1565.64,-43.725
1565.66,-43.743
1565.68,-43.764
1565.7,-43.785
1565.72,-43.802
1565.74,-43.821
1565.76,-43.841
1565.78,-43.859
1565.8,-43.881
1565.82,-43.897
1565.84,-43.916
1565.86,-43.933
1565.88,-43.954
1565.9,-43.973
1565.92,-43.991
1565.94,-44.011
1565.96,-44.033
1565.98,-44.052
1566,-44.071
1566.02,-44.09
1566.04,-44.11
1566.06,-44.13
1566.08,-44.15
1566.1,-44.169
1566.12,-44.189
1566.14,-44.209
1566.16,-44.227
1566.18,-44.245
1566.2,-44.263
1566.22,-44.286
1566.24,-44.306
1566.26,-44.325
1566.28,-44.344
1566.3,-44.363
1566.32,-44.381
1566.34,-44.402
1566.36,-44.42
1566.38,-44.437
1566.4,-44.459
1566.42,-44.479
1566.44,-44.498
1566.46,-44.519
1566.48,-44.536
1566.5,-44.556
1566.52,-44.579
1566.54,-44.598
1566.56,-44.617
1566.58,-44.636
1566.6,-44.658
1566.62,-44.676
1566.64,-44.697
1566.66,-44.716
1566.68,-44.736
1566.7,-44.756
1566.72,-44.776
1566.74,-44.793
1566.76,-44.813
1566.78,-44.832
1566.8,-44.853
1566.82,-44.873
1566.84,-44.894
1566.86,-44.913
1566.88,-44.933
1566.9,-44.953
1566.92,-44.97
1566.94,-44.99
1566.96,-45.009
1566.98,-45.027
1567,-45.048
1567.02,-45.068
1567.04,-45.087
1567.06,-45.106
1567.08,-45.123
1567.1,-45.142
1567.12,-45.163
1567.14,-45.182
1567.16,-45.204
1567.18,-45.226
1567.2,-45.24
1567.22,-45.261
1567.24,-45.28
1567.26,-45.298
1567.28,-45.319
1567.3,-45.341
1567.32,-45.358
1567.34,-45.378
1567.36,-45.396
1567.38,-45.418
1567.4,-45.437
1567.42,-45.457
1567.44,-45.477
1567.46,-45.497
1567.48,-45.516
1567.5,-45.537
1567.52,-45.559
1567.54,-45.579
1567.56,-45.6
1567.58,-45.619
1567.6,-45.64
1567.62,-45.658
1567.64,-45.678
1567.66,-45.698
1567.68,-45.717
1567.7,-45.739
1567.72,-45.755
1567.74,-45.776
1567.76,-45.798
1567.78,-45.817
1567.8,-45.836
1567.82,-45.855
1567.84,-45.875
1567.86,-45.893
1567.88,-45.913
1567.9,-45.934
1567.92,-45.956
1567.94,-45.971
1567.96,-45.992
1567.98,-46.013
1568,-46.033
1568.02,-46.051
1568.04,-46.072
1568.06,-46.092
1568.08,-46.115
1568.1,-46.134
1568.12,-46.152
1568.14,-46.171
1568.16,-46.191
1568.18,-46.212
1568.2,-46.233
1568.22,-46.254
1568.24,-46.274
1568.26,-46.296
1568.28,-46.311
1568.3,-46.334
1568.32,-46.354
1568.34,-46.375
1568.36,-46.398
1568.38,-46.416
1568.4,-46.437
1568.42,-46.457
1568.44,-46.473
1568.46,-46.494
1568.48,-46.513
1568.5,-46.534
1568.52,-46.551
1568.54,-46.571
1568.56,-46.588
1568.58,-46.609
1568.6,-46.625
1568.62,-46.648
1568.64,-46.669
1568.66,-46.688
1568.68,-46.706
1568.7,-46.727
1568.72,-46.746
1568.74,-46.762
1568.76,-46.784
1568.78,-46.803
1568.8,-46.823
1568.82,-46.843
1568.84,-46.861
1568.86,-46.885
1568.88,-46.902
1568.9,-46.917
1568.92,-46.938
1568.94,-46.958
1568.96,-46.977
1568.98,-46.995
1569,-47.017
1569.02,-47.038
1569.04,-47.056
1569.06,-47.076
1569.08,-47.096
1569.1,-47.114
1569.12,-47.136
1569.14,-47.155
1569.16,-47.177
1569.18,-47.194
1569.2,-47.216
1569.22,-47.237
1569.24,-47.253
1569.26,-47.272
1569.28,-47.292
1569.3,-47.311
1569.32,-47.334
1569.34,-47.351
1569.36,-47.368
1569.38,-47.387
1569.4,-47.404
1569.42,-47.425
1569.44,-47.449
1569.46,-47.465
1569.48,-47.485
1569.5,-47.503
1569.52,-47.52
1569.54,-47.536
1569.56,-47.558
1569.58,-47.574
1569.6,-47.597
1569.62,-47.614
1569.64,-47.634
1569.66,-47.653
1569.68,-47.672
1569.7,-47.69
1569.72,-47.708
1569.74,-47.729
1569.76,-47.748
1569.78,-47.769
1569.8,-47.786
1569.82,-47.805
1569.84,-47.822
1569.86,-47.842
1569.88,-47.862
1569.9,-47.885
1569.92,-47.904
1569.94,-47.922
1569.96,-47.939
1569.98,-47.961
1570,-47.979
1570.02,-47.998
1570.04,-48.014
1570.06,-48.035
1570.08,-48.053
1570.1,-48.073
1570.12,-48.092
1570.14,-48.11
1570.16,-48.128
1570.18,-48.148
1570.2,-48.167
1570.22,-48.188
1570.24,-48.209
1570.26,-48.221
1570.28,-48.244
1570.3,-48.261
1570.32,-48.282
1570.34,-48.3
1570.36,-48.317
1570.38,-48.339
1570.4,-48.355
1570.42,-48.372
1570.44,-48.391
1570.46,-48.411
1570.48,-48.429
1570.5,-48.452
1570.52,-48.47
1570.54,-48.488
1570.56,-48.508
1570.58,-48.528
1570.6,-48.549
1570.62,-48.568
1570.64,-48.588
1570.66,-48.609
1570.68,-48.623
1570.7,-48.641
1570.72,-48.661
1570.74,-48.679
1570.76,-48.699
1570.78,-48.715
1570.8,-48.738
1570.82,-48.757
1570.84,-48.774
1570.86,-48.794
1570.88,-48.812
1570.9,-48.828
1570.92,-48.851
1570.94,-48.867
1570.96,-48.888
1570.98,-48.902
1571,-48.924
1571.02,-48.942
1571.04,-48.958
1571.06,-48.977
1571.08,-48.994
1571.1,-49.016
1571.12,-49.029
1571.14,-49.048
1571.16,-49.065
1571.18,-49.081
1571.2,-49.101
1571.22,-49.119
1571.24,-49.139
1571.26,-49.156
1571.28,-49.173
1571.3,-49.194
1571.32,-49.212
1571.34,-49.229
1571.36,-49.248
1571.38,-49.267
1571.4,-49.285
1571.42,-49.301
1571.44,-49.322
1571.46,-49.339
1571.48,-49.356
1571.5,-49.376
1571.52,-49.396
1571.54,-49.414
1571.56,-49.432
1571.58,-49.451
1571.6,-49.47
1571.62,-49.485
1571.64,-49.504
1571.66,-49.521
1571.68,-49.537
1571.7,-49.559
1571.72,-49.575
1571.74,-49.59
1571.76,-49.608
1571.78,-49.623
1571.8,-49.649
1571.82,-49.662
1571.84,-49.678
1571.86,-49.695
1571.88,-49.716
1571.9,-49.732
1571.92,-49.746
1571.94,-49.787
1571.96,-49.797
1571.98,-49.803
1572,-49.823
1572.02,-49.837
1572.04,-49.853
1572.06,-49.873
1572.08,-49.889
1572.1,-49.907
1572.12,-49.924
1572.14,-49.942
1572.16,-49.961
1572.18,-49.979
1572.2,-49.994
1572.22,-50.011
1572.24,-50.025
1572.26,-50.043
1572.28,-50.059
1572.3,-50.077
1572.32,-50.096
1572.34,-50.112
1572.36,-50.129
1572.38,-50.144
1572.4,-50.167
1572.42,-50.181
1572.44,-50.196
1572.46,-50.215
1572.48,-50.23
1572.5,-50.248
1572.52,-50.265
1572.54,-50.281
1572.56,-50.3
1572.58,-50.317
1572.6,-50.335
1572.62,-50.351
1572.64,-50.367
1572.66,-50.384
1572.68,-50.397
1572.7,-50.412
1572.72,-50.432
1572.74,-50.446
1572.76,-50.465
1572.78,-50.479
1572.8,-50.499
1572.82,-50.516
1572.84,-50.533
1572.86,-50.553
1572.88,-50.566
1572.9,-50.584
1572.92,-50.602
1572.94,-50.619
1572.96,-50.633
1572.98,-50.653
1573,-50.669
1573.02,-50.683
1573.04,-50.7
1573.06,-50.718
1573.08,-50.732
1573.1,-50.749
1573.12,-50.763
1573.14,-50.779
1573.16,-50.8
1573.18,-50.81
1573.2,-50.829
1573.22,-50.843
1573.24,-50.861
1573.26,-50.876
1573.28,-50.894
1573.3,-50.909
1573.32,-50.925
1573.34,-50.94
1573.36,-50.959
1573.38,-50.972
1573.4,-50.993
1573.42,-51.006
1573.44,-51.021
1573.46,-51.04
1573.48,-51.053
1573.5,-51.067
1573.52,-51.085
1573.54,-51.101
1573.56,-51.117
1573.58,-51.131
1573.6,-51.147
1573.62,-51.167
1573.64,-51.179
1573.66,-51.194
1573.68,-51.211
1573.7,-51.226
1573.72,-51.242
1573.74,-51.255
1573.76,-51.274
1573.78,-51.285
1573.8,-51.303
1573.82,-51.319
1573.84,-51.333
1573.86,-51.347
1573.88,-51.359
1573.9,-51.377
1573.92,-51.392
1573.94,-51.41
1573.96,-51.424
1573.98,-51.438
1574,-51.453
1574.02,-51.468
1574.04,-51.48
1574.06,-51.497
1574.08,-51.511
1574.1,-51.53
1574.12,-51.543
1574.14,-51.559
1574.16,-51.576
1574.18,-51.585
1574.2,-51.601
1574.22,-51.617
1574.24,-51.632
1574.26,-51.647
1574.28,-51.661
1574.3,-51.678
1574.32,-51.692
1574.34,-51.709
1574.36,-51.719
1574.38,-51.74
1574.4,-51.753
1574.42,-51.768
1574.44,-51.785
1574.46,-51.795
1574.48,-51.811
1574.5,-51.825
1574.52,-51.841
1574.54,-51.856
1574.56,-51.872
1574.58,-51.887
1574.6,-51.902
1574.62,-51.913
1574.64,-51.932
1574.66,-51.944
1574.68,-51.957
1574.7,-51.97
1574.72,-51.985
1574.74,-52.005
1574.76,-52.019
1574.78,-52.033
1574.8,-52.041
1574.82,-52.056
1574.84,-52.072
1574.86,-52.087
1574.88,-52.101
1574.9,-52.118
1574.92,-52.128
1574.94,-52.146
1574.96,-52.155
1574.98,-52.17
1575,-52.187
1575.02,-52.196
1575.04,-52.213
1575.06,-52.226
1575.08,-52.237
1575.1,-52.258
1575.12,-52.268
1575.14,-52.283
1575.16,-52.3
1575.18,-52.311
1575.2,-52.33
1575.22,-52.336
1575.24,-52.353
1575.26,-52.367
1575.28,-52.38
1575.3,-52.394
1575.32,-52.406
1575.34,-52.42
1575.36,-52.433
1575.38,-52.447
1575.4,-52.463
1575.42,-52.474
1575.44,-52.488
1575.46,-52.501
1575.48,-52.516
1575.5,-52.528
1575.52,-52.539
1575.54,-52.559
1575.56,-52.567
1575.58,-52.58
1575.6,-52.596
1575.62,-52.611
1575.64,-52.618
1575.66,-52.632
1575.68,-52.649
1575.7,-52.656
1575.72,-52.67
1575.74,-52.687
1575.76,-52.699
1575.78,-52.712
1575.8,-52.724
1575.82,-52.737
1575.84,-52.746
1575.86,-52.764
1575.88,-52.774
1575.9,-52.791
1575.92,-52.802
1575.94,-52.818
1575.96,-52.831
1575.98,-52.841
1576,-52.857
1576.02,-52.868
1576.04,-52.879
1576.06,-52.895
1576.08,-52.908
1576.1,-52.921
1576.12,-52.933
1576.14,-52.952
1576.16,-52.956
1576.18,-52.966
1576.2,-52.979
1576.22,-52.993
1576.24,-53.008
1576.26,-53.028
1576.28,-53.03
1576.3,-53.048
1576.32,-53.056
1576.34,-53.073
1576.36,-53.082
1576.38,-53.096
1576.4,-53.109
1576.42,-53.116
1576.44,-53.131
1576.46,-53.139
1576.48,-53.156
1576.5,-53.167
1576.52,-53.176
1576.54,-53.189
1576.56,-53.2
1576.58,-53.212
1576.6,-53.228
1576.62,-53.236
1576.64,-53.252
1576.66,-53.26
1576.68,-53.274
1576.7,-53.285
1576.72,-53.294
1576.74,-53.316
1576.76,-53.324
1576.78,-53.333
1576.8,-53.342
1576.82,-53.356
1576.84,-53.369
1576.86,-53.382
1576.88,-53.394
1576.9,-53.404
1576.92,-53.419
1576.94,-53.425
1576.96,-53.439
1576.98,-53.455
1577,-53.459
1577.02,-53.475
1577.04,-53.487
1577.06,-53.495
1577.08,-53.512
1577.1,-53.52
1577.12,-53.532
1577.14,-53.546
1577.16,-53.557
1577.18,-53.562
1577.2,-53.577
1577.22,-53.587
1577.24,-53.599
1577.26,-53.609
1577.28,-53.619
1577.3,-53.63
1577.32,-53.645
1577.34,-53.658
1577.36,-53.667
1577.38,-53.682
1577.4,-53.691
1577.42,-53.7
1577.44,-53.717
1577.46,-53.717
1577.48,-53.737
1577.5,-53.744
1577.52,-53.754
1577.54,-53.772
1577.56,-53.782
1577.58,-53.792
1577.6,-53.801
1577.62,-53.818
1577.64,-53.83
1577.66,-53.841
1577.68,-53.849
1577.7,-53.859
1577.72,-53.872
1577.74,-53.879
1577.76,-53.891
1577.78,-53.907
1577.8,-53.918
1577.82,-53.923
1577.84,-53.935
1577.86,-53.945
1577.88,-53.957
1577.9,-53.967
1577.92,-53.983
1577.94,-53.988
1577.96,-53.997
1577.98,-54.01
1578,-54.019
1578.02,-54.031
1578.04,-54.042
1578.06,-54.055
1578.08,-54.065
1578.1,-54.076
1578.12,-54.081
1578.14,-54.097
1578.16,-54.103
1578.18,-54.12
1578.2,-54.135
1578.22,-54.13
1578.24,-54.15
1578.26,-54.157
1578.28,-54.163
1578.3,-54.178
1578.32,-54.188
1578.34,-54.198
1578.36,-54.208
1578.38,-54.217
1578.4,-54.232
1578.42,-54.244
1578.44,-54.245
1578.46,-54.256
1578.48,-54.27
1578.5,-54.286
1578.52,-54.289
1578.54,-54.294
1578.56,-54.309
1578.58,-54.321
1578.6,-54.333
1578.62,-54.337
1578.64,-54.352
1578.66,-54.367
1578.68,-54.377
1578.7,-54.386
1578.72,-54.396
1578.74,-54.403
1578.76,-54.411
1578.78,-54.425
1578.8,-54.431
1578.82,-54.449
1578.84,-54.453
1578.86,-54.468
1578.88,-54.482
1578.9,-54.487
1578.92,-54.493
1578.94,-54.503
1578.96,-54.513
1578.98,-54.526
1579,-54.528
1579.02,-54.537
1579.04,-54.552
1579.06,-54.563
1579.08,-54.572
1579.1,-54.576
1579.12,-54.594
1579.14,-54.601
1579.16,-54.609
1579.18,-54.614
1579.2,-54.635
1579.22,-54.636
1579.24,-54.656
1579.26,-54.658
1579.28,-54.661
1579.3,-54.673
1579.32,-54.683
1579.34,-54.697
1579.36,-54.699
1579.38,-54.711
1579.4,-54.729
1579.42,-54.735
1579.44,-54.74
1579.46,-54.746
1579.48,-54.752
1579.5,-54.774
1579.52,-54.78
1579.54,-54.79
1579.56,-54.794
1579.58,-54.812
1579.6,-54.821
1579.62,-54.827
1579.64,-54.832
1579.66,-54.839
1579.68,-54.86
1579.7,-54.865
1579.72,-54.875
1579.74,-54.884
1579.76,-54.89
1579.78,-54.896
1579.8,-54.912
1579.82,-54.914
1579.84,-54.929
1579.86,-54.941
1579.88,-54.945
1579.9,-54.951
1579.92,-54.962
1579.94,-54.969
1579.96,-54.99
1579.98,-54.989
1580,-54.993
1580.02,-55.006
1580.04,-55.015
1580.06,-55.023
1580.08,-55.036
1580.1,-55.042
1580.12,-55.05
1580.14,-55.055
1580.16,-55.068
1580.18,-55.077
1580.2,-55.08
1580.22,-55.09
1580.24,-55.098
1580.26,-55.106
1580.28,-55.123
1580.3,-55.124
1580.32,-55.14
1580.34,-55.144
1580.36,-55.148
1580.38,-55.157
1580.4,-55.168
1580.42,-55.17
1580.44,-55.187
1580.46,-55.192
1580.48,-55.206
1580.5,-55.212
1580.52,-55.217
1580.54,-55.229
1580.56,-55.237
1580.58,-55.241
1580.6,-55.248
1580.62,-55.264
1580.64,-55.266
1580.66,-55.272
1580.68,-55.282
1580.7,-55.295
1580.72,-55.296
1580.74,-55.304
1580.76,-55.315
1580.78,-55.329
1580.8,-55.331
1580.82,-55.345
1580.84,-55.348
1580.86,-55.357
1580.88,-55.362
1580.9,-55.368
1580.92,-55.388
1580.94,-55.387
1580.96,-55.398
1580.98,-55.404
1581,-55.408
1581.02,-55.423
1581.04,-55.436
1581.06,-55.443
1581.08,-55.446
1581.1,-55.449
1581.12,-55.454
1581.14,-55.468
1581.16,-55.481
1581.18,-55.485
1581.2,-55.495
1581.22,-55.507
1581.24,-55.509
1581.26,-55.512
1581.28,-55.525
1581.3,-55.532
1581.32,-55.533
1581.34,-55.553
1581.36,-55.552
1581.38,-55.557
1581.4,-55.556
1581.42,-55.582
1581.44,-55.589
1581.46,-55.589
1581.48,-55.605
1581.5,-55.608
1581.52,-55.621
1581.54,-55.621
1581.56,-55.626
1581.58,-55.637
1581.6,-55.647
1581.62,-55.652
1581.64,-55.657
1581.66,-55.667
1581.68,-55.678
1581.7,-55.676
1581.72,-55.692
1581.74,-55.688
1581.76,-55.707
1581.78,-55.711
1581.8,-55.726
1581.82,-55.727
1581.84,-55.731
1581.86,-55.745
1581.88,-55.746
1581.9,-55.754
1581.92,-55.758
1581.94,-55.768
1581.96,-55.781
1581.98,-55.784
1582,-55.801
1582.02,-55.803
1582.04,-55.813
1582.06,-55.821
1582.08,-55.822
1582.1,-55.829
1582.12,-55.837
1582.14,-55.849
1582.16,-55.856
1582.18,-55.852
1582.2,-55.862
1582.22,-55.877
1582.24,-55.879
1582.26,-55.891
1582.28,-55.892
1582.3,-55.908
1582.32,-55.904
1582.34,-55.923
1582.36,-55.924
1582.38,-55.926
1582.4,-55.928
1582.42,-55.935
1582.44,-55.944
1582.46,-55.946
1582.48,-55.959
1582.5,-55.971
1582.52,-55.969
1582.54,-55.987
1582.56,-55.993
1582.58,-55.998
1582.6,-56.012
1582.62,-56.008
1582.64,-56.027
1582.66,-56.027
1582.68,-56.031
1582.7,-56.038
1582.72,-56.049
1582.74,-56.064
1582.76,-56.067
1582.78,-56.072
1582.8,-56.079
1582.82,-56.08
1582.84,-56.092
1582.86,-56.105
1582.88,-56.108
1582.9,-56.119
1582.92,-56.121
1582.94,-56.121
1582.96,-56.137
1582.98,-56.139
1583,-56.152
1583.02,-56.149
1583.04,-56.161
1583.06,-56.169
1583.08,-56.176
1583.1,-56.181
1583.12,-56.184
1583.14,-56.194
1583.16,-56.201
1583.18,-56.199
1583.2,-56.213
1583.22,-56.228
1583.24,-56.233
1583.26,-56.23
1583.28,-56.238
1583.3,-56.25
1583.32,-56.25
1583.34,-56.25
1583.36,-56.26
1583.38,-56.281
1583.4,-56.279
1583.42,-56.291
1583.44,-56.29
1583.46,-56.301
1583.48,-56.304
1583.5,-56.312
1583.52,-56.323
1583.54,-56.329
1583.56,-56.336
1583.58,-56.341
1583.6,-56.344
1583.62,-56.356
1583.64,-56.369
1583.66,-56.36
1583.68,-56.37
1583.7,-56.379
1583.72,-56.39
1583.74,-56.388
1583.76,-56.383
1583.78,-56.406
1583.8,-56.411
1583.82,-56.415
1583.84,-56.42
1583.86,-56.439
1583.88,-56.428
1583.9,-56.435
1583.92,-56.444
1583.94,-56.456
1583.96,-56.459
1583.98,-56.472
1584,-56.478
1584.02,-56.474
1584.04,-56.479
1584.06,-56.485
1584.08,-56.493
1584.1,-56.507
1584.12,-56.512
1584.14,-56.513
1584.16,-56.518
1584.18,-56.527
1584.2,-56.543
1584.22,-56.535
1584.24,-56.539
1584.26,-56.544
1584.28,-56.557
1584.3,-56.558
1584.32,-56.572
1584.34,-56.569
1584.36,-56.582
1584.38,-56.587
1584.4,-56.585
1584.42,-56.594
1584.44,-56.599
1584.46,-56.606
1584.48,-56.617
1584.5,-56.614
1584.52,-56.611
1584.54,-56.629
1584.56,-56.642
1584.58,-56.644
1584.6,-56.644
1584.62,-56.651
1584.64,-56.658
1584.66,-56.667
1584.68,-56.669
1584.7,-56.688
1584.72,-56.68
1584.74,-56.687
1584.76,-56.699
1584.78,-56.7
1584.8,-56.708
1584.82,-56.708
1584.84,-56.721
1584.86,-56.727
1584.88,-56.727
1584.9,-56.723
1584.92,-56.745
1584.94,-56.739
1584.96,-56.742
1584.98,-56.758
1585,-56.758
1585.02,-56.761
1585.04,-56.778
1585.06,-56.777
1585.08,-56.773
1585.1,-56.787
1585.12,-56.786
1585.14,-56.804
1585.16,-56.798
1585.18,-56.809
1585.2,-56.813
1585.22,-56.816
1585.24,-56.836
1585.26,-56.822
1585.28,-56.827
1585.3,-56.843
1585.32,-56.852
1585.34,-56.855
1585.36,-56.849
1585.38,-56.865
1585.4,-56.869
1585.42,-56.866
1585.44,-56.873
1585.46,-56.889
1585.48,-56.894
1585.5,-56.898
1585.52,-56.903
1585.54,-56.903
1585.56,-56.91
1585.58,-56.915
1585.6,-56.93
1585.62,-56.923
1585.64,-56.935
1585.66,-56.937
1585.68,-56.939
1585.7,-56.944
1585.72,-56.966
1585.74,-56.957
1585.76,-56.974
1585.78,-56.975
1585.8,-56.978
1585.82,-56.982
1585.84,-56.989
1585.86,-56.994
1585.88,-57.005
1585.9,-57.017
1585.92,-57.002
1585.94,-57.006
1585.96,-57.011
1585.98,-57.021
1586,-57.029
1586.02,-57.027
1586.04,-57.037
1586.06,-57.036
1586.08,-57.048
1586.1,-57.062
1586.12,-57.059
1586.14,-57.062
1586.16,-57.069
1586.18,-57.065
1586.2,-57.074
1586.22,-57.085
1586.24,-57.094
1586.26,-57.084
1586.28,-57.1
1586.3,-57.112
1586.32,-57.112
1586.34,-57.108
1586.36,-57.111
1586.38,-57.131
1586.4,-57.136
1586.42,-57.129
1586.44,-57.135
1586.46,-57.156
1586.48,-57.15
1586.5,-57.159
1586.52,-57.17
1586.54,-57.164
1586.56,-57.173
1586.58,-57.17
1586.6,-57.184
1586.62,-57.188
1586.64,-57.188
1586.66,-57.207
1586.68,-57.203
1586.7,-57.219
1586.72,-57.218
1586.74,-57.212
1586.76,-57.213
1586.78,-57.228
1586.8,-57.237
1586.82,-57.244
1586.84,-57.241
1586.86,-57.252
1586.88,-57.25
1586.9,-57.257
1586.92,-57.265
1586.94,-57.272
1586.96,-57.274
1586.98,-57.281
1587,-57.278
1587.02,-57.293
1587.04,-57.291
1587.06,-57.295
1587.08,-57.303
1587.1,-57.316
1587.12,-57.313
1587.14,-57.318
1587.16,-57.311
1587.18,-57.331
1587.2,-57.342
1587.22,-57.338
1587.24,-57.35
1587.26,-57.353
1587.28,-57.353
1587.3,-57.364
1587.32,-57.365
1587.34,-57.375
1587.36,-57.374
1587.38,-57.385
1587.4,-57.379
1587.42,-57.406
1587.44,-57.386
1587.46,-57.398
1587.48,-57.403
1587.5,-57.406
1587.52,-57.417
1587.54,-57.425
1587.56,-57.438
1587.58,-57.416
1587.6,-57.444
1587.62,-57.438
1587.64,-57.441
1587.66,-57.44
1587.68,-57.454
1587.7,-57.466
1587.72,-57.459
1587.74,-57.475
1587.76,-57.471
1587.78,-57.487
1587.8,-57.481
1587.82,-57.496
1587.84,-57.494
1587.86,-57.499
1587.88,-57.513
1587.9,-57.503
1587.92,-57.516
1587.94,-57.526
1587.96,-57.518
1587.98,-57.53
1588,-57.531
1588.02,-57.534
1588.04,-57.54
1588.06,-57.546
1588.08,-57.554
1588.1,-57.549
1588.12,-57.553
1588.14,-57.553
1588.16,-57.561
1588.18,-57.581
1588.2,-57.579
1588.22,-57.582
1588.24,-57.582
1588.26,-57.589
1588.28,-57.599
1588.3,-57.603
1588.32,-57.608
1588.34,-57.596
1588.36,-57.617
1588.38,-57.615
1588.4,-57.626
1588.42,-57.615
1588.44,-57.629
1588.46,-57.637
1588.48,-57.63
1588.5,-57.639
1588.52,-57.652
1588.54,-57.653
1588.56,-57.662
1588.58,-57.666
1588.6,-57.667
1588.62,-57.675
1588.64,-57.667
1588.66,-57.672
1588.68,-57.687
1588.7,-57.694
1588.72,-57.685
1588.74,-57.695
1588.76,-57.714
1588.78,-57.706
1588.8,-57.709
1588.82,-57.717
1588.84,-57.726
1588.86,-57.729
1588.88,-57.73
1588.9,-57.728
1588.92,-57.744
1588.94,-57.743
1588.96,-57.759
1588.98,-57.747
1589,-57.767
1589.02,-57.751
1589.04,-57.768
1589.06,-57.78
1589.08,-57.767
1589.1,-57.785
1589.12,-57.793
1589.14,-57.805
1589.16,-57.792
1589.18,-57.807
1589.2,-57.8
1589.22,-57.822
1589.24,-57.8
1589.26,-57.821
1589.28,-57.831
1589.3,-57.825
1589.32,-57.83
1589.34,-57.845
1589.36,-57.827
1589.38,-57.846
1589.4,-57.852
1589.42,-57.846
1589.44,-57.87
1589.46,-57.862
1589.48,-57.863
1589.5,-57.866
1589.52,-57.872
1589.54,-57.882
1589.56,-57.888
1589.58,-57.887
1589.6,-57.886
1589.62,-57.902
1589.64,-57.896
1589.66,-57.906
1589.68,-57.908
1589.7,-57.914
1589.72,-57.927
1589.74,-57.92
1589.76,-57.918
1589.78,-57.933
1589.8,-57.943
1589.82,-57.944
1589.84,-57.948
1589.86,-57.952
1589.88,-57.95
1589.9,-57.947
1589.92,-57.978
1589.94,-57.967
1589.96,-57.963
1589.98,-57.979
1590,-57.984
1590.02,-57.976
1590.04,-57.996
1590.06,-57.973
1590.08,-58.002
1590.1,-57.998
1590.12,-58.002
1590.14,-58
1590.16,-58.023
1590.18,-58.007
1590.2,-58.034
1590.22,-58.026
1590.24,-58.028
1590.26,-58.03
1590.28,-58.048
1590.3,-58.04
1590.32,-58.053
1590.34,-58.04
1590.36,-58.058
1590.38,-58.062
1590.4,-58.053
1590.42,-58.067
1590.44,-58.075
1590.46,-58.085
1590.48,-58.08
1590.5,-58.087
1590.52,-58.091
1590.54,-58.103
1590.56,-58.1
1590.58,-58.099
1590.6,-58.114
1590.62,-58.112
1590.64,-58.129
1590.66,-58.129
1590.68,-58.126
1590.7,-58.134
1590.72,-58.139
1590.74,-58.134
1590.76,-58.157
1590.78,-58.158
1590.8,-58.161
1590.82,-58.156
1590.84,-58.172
1590.86,-58.159
1590.88,-58.168
1590.9,-58.179
1590.92,-58.177
1590.94,-58.2
1590.96,-58.191
1590.98,-58.195
1591,-58.186
1591.02,-58.209
1591.04,-58.213
1591.06,-58.206
1591.08,-58.213
1591.1,-58.217
1591.12,-58.225
1591.14,-58.224
1591.16,-58.228
1591.18,-58.226
1591.2,-58.234
1591.22,-58.255
1591.24,-58.242
1591.26,-58.271
1591.28,-58.262
1591.3,-58.257
1591.32,-58.277
1591.34,-58.275
1591.36,-58.277
1591.38,-58.275
1591.4,-58.297
1591.42,-58.286
1591.44,-58.307
1591.46,-58.302
1591.48,-58.301
1591.5,-58.318
1591.52,-58.311
1591.54,-58.33
1591.56,-58.319
1591.58,-58.325
1591.6,-58.337
1591.62,-58.335
1591.64,-58.34
1591.66,-58.347
1591.68,-58.338
1591.7,-58.362
1591.72,-58.356
1591.74,-58.377
1591.76,-58.371
1591.78,-58.366
1591.8,-58.363
1591.82,-58.374
1591.84,-58.386
1591.86,-58.406
1591.88,-58.383
1591.9,-58.392
1591.92,-58.413
1591.94,-58.405
1591.96,-58.414
1591.98,-58.425
1592,-58.427
1592.02,-58.421
1592.04,-58.432
1592.06,-58.443
1592.08,-58.442
1592.1,-58.442
1592.12,-58.454
1592.14,-58.44
1592.16,-58.466
1592.18,-58.453
1592.2,-58.463
1592.22,-58.467
1592.24,-58.479
1592.26,-58.473
1592.28,-58.487
1592.3,-58.484
1592.32,-58.491
1592.34,-58.497
1592.36,-58.499
1592.38,-58.508
1592.4,-58.511
1592.42,-58.518
1592.44,-58.502
1592.46,-58.52
1592.48,-58.517
1592.5,-58.53
1592.52,-58.535
1592.54,-58.533
1592.56,-58.546
1592.58,-58.551
1592.6,-58.552
1592.62,-58.539
1592.64,-58.551
1592.66,-58.554
1592.68,-58.571
1592.7,-58.56
1592.72,-58.57
1592.74,-58.581
1592.76,-58.58
1592.78,-58.578
1592.8,-58.599
1592.82,-58.582
1592.84,-58.584
1592.86,-58.604
1592.88,-58.616
1592.9,-58.611
1592.92,-58.6
1592.94,-58.615
1592.96,-58.622
1592.98,-58.64
1593,-58.622
1593.02,-58.612
1593.04,-58.637
1593.06,-58.647
1593.08,-58.644
1593.1,-58.668
1593.12,-58.63
1593.14,-58.668
1593.16,-58.675
1593.18,-58.667
1593.2,-58.666
1593.22,-58.67
1593.24,-58.667
1593.26,-58.679
1593.28,-58.705
1593.3,-58.68
1593.32,-58.693
1593.34,-58.688
1593.36,-58.692
1593.38,-58.696
1593.4,-58.71
1593.42,-58.714
1593.44,-58.715
1593.46,-58.708
1593.48,-58.728
1593.5,-58.718
1593.52,-58.734
1593.54,-58.728
1593.56,-58.746
1593.58,-58.746
1593.6,-58.754
1593.62,-58.749
1593.64,-58.769
1593.66,-58.76
1593.68,-58.771
1593.7,-58.756
1593.72,-58.779
1593.74,-58.778
1593.76,-58.79
1593.78,-58.791
1593.8,-58.788
1593.82,-58.806
1593.84,-58.794
1593.86,-58.803
1593.88,-58.812
1593.9,-58.806
1593.92,-58.822
1593.94,-58.823
1593.96,-58.82
1593.98,-58.823
1594,-58.836
1594.02,-58.835
1594.04,-58.834
1594.06,-58.853
1594.08,-58.828
1594.1,-58.869
1594.12,-58.85
1594.14,-58.87
1594.16,-58.866
1594.18,-58.872
1594.2,-58.867
1594.22,-58.871
1594.24,-58.88
1594.26,-58.875
1594.28,-58.893
1594.3,-58.911
1594.32,-58.894
1594.34,-58.894
1594.36,-58.928
1594.38,-58.908
1594.4,-58.915
1594.42,-58.922
1594.44,-58.929
1594.46,-58.937
1594.48,-58.926
1594.5,-58.944
1594.52,-58.939
1594.54,-58.94
1594.56,-58.953
1594.58,-58.957
1594.6,-58.965
1594.62,-58.972
1594.64,-58.972
1594.66,-58.966
1594.68,-58.972
1594.7,-58.982
1594.72,-58.991
1594.74,-58.98
1594.76,-58.994
1594.78,-59.002
1594.8,-58.994
1594.82,-59.008
1594.84,-58.987
1594.86,-59.023
1594.88,-59.003
1594.9,-59.025
1594.92,-59.033
1594.94,-59.023
1594.96,-59.031
1594.98,-59.045
1595,-59.048
1595.02,-59.047
1595.04,-59.056
1595.06,-59.056
1595.08,-59.061
1595.1,-59.05
1595.12,-59.072
1595.14,-59.07
1595.16,-59.083
1595.18,-59.096
1595.2,-59.083
1595.22,-59.091
1595.24,-59.107
1595.26,-59.075
1595.28,-59.106
1595.3,-59.103
1595.32,-59.095
1595.34,-59.105
1595.36,-59.134
1595.38,-59.12
1595.4,-59.133
1595.42,-59.123
1595.44,-59.142
1595.46,-59.132
1595.48,-59.137
1595.5,-59.144
1595.52,-59.146
1595.54,-59.173
1595.56,-59.166
1595.58,-59.155
1595.6,-59.162
1595.62,-59.171
1595.64,-59.177
1595.66,-59.166
1595.68,-59.176
1595.7,-59.202
1595.72,-59.19
1595.74,-59.21
1595.76,-59.213
1595.78,-59.198
1595.8,-59.215
1595.82,-59.213
1595.84,-59.218
1595.86,-59.223
1595.88,-59.226
1595.9,-59.245
1595.92,-59.226
1595.94,-59.24
1595.96,-59.236
1595.98,-59.229
1596,-59.255
1596.02,-59.245
1596.04,-59.269
1596.06,-59.248
1596.08,-59.283
1596.1,-59.276
1596.12,-59.287
1596.14,-59.28
1596.16,-59.265
1596.18,-59.297
1596.2,-59.306
1596.22,-59.321
1596.24,-59.302
1596.26,-59.298
1596.28,-59.317
1596.3,-59.326
1596.32,-59.32
1596.34,-59.319
1596.36,-59.324
1596.38,-59.339
1596.4,-59.331
1596.42,-59.347
1596.44,-59.339
1596.46,-59.35
1596.48,-59.34
1596.5,-59.355
1596.52,-59.373
1596.54,-59.352
1596.56,-59.362
1596.58,-59.372
1596.6,-59.371
1596.62,-59.382
1596.64,-59.381
1596.66,-59.388
1596.68,-59.393
1596.7,-59.377
1596.72,-59.394
1596.74,-59.407
1596.76,-59.408
1596.78,-59.4
1596.8,-59.4
1596.82,-59.41
1596.84,-59.435
1596.86,-59.435
1596.88,-59.445
1596.9,-59.434
1596.92,-59.411
1596.94,-59.443
1596.96,-59.455
1596.98,-59.431
1597,-59.455
1597.02,-59.443
1597.04,-59.461
1597.06,-59.457
1597.08,-59.48
1597.1,-59.464
1597.12,-59.492
1597.14,-59.475
1597.16,-59.48
1597.18,-59.478
1597.2,-59.507
1597.22,-59.484
1597.24,-59.503
1597.26,-59.507
1597.28,-59.511
1597.3,-59.52
1597.32,-59.506
1597.34,-59.526
1597.36,-59.524
1597.38,-59.542
1597.4,-59.524
1597.42,-59.529
1597.44,-59.543
1597.46,-59.543
1597.48,-59.545
1597.5,-59.551
1597.52,-59.573
1597.54,-59.543
1597.56,-59.554
1597.58,-59.593
1597.6,-59.584
1597.62,-59.567
1597.64,-59.59
1597.66,-59.583
1597.68,-59.597
1597.7,-59.577
1597.72,-59.589
1597.74,-59.596
1597.76,-59.611
1597.78,-59.603
1597.8,-59.619
1597.82,-59.6
1597.84,-59.647
1597.86,-59.627
1597.88,-59.621
1597.9,-59.633
1597.92,-59.636
1597.94,-59.634
1597.96,-59.666
1597.98,-59.653
1598,-59.678
1598.02,-59.656
1598.04,-59.663
1598.06,-59.672
1598.08,-59.665
1598.1,-59.679
1598.12,-59.664
1598.14,-59.706
1598.16,-59.691
1598.18,-59.7
1598.2,-59.68
1598.22,-59.694
1598.24,-59.708
1598.26,-59.698
1598.28,-59.73
1598.3,-59.736
1598.32,-59.712
1598.34,-59.723
1598.36,-59.746
1598.38,-59.753
1598.4,-59.751
1598.42,-59.721
1598.44,-59.755
1598.46,-59.755
1598.48,-59.737
1598.5,-59.758
1598.52,-59.789
1598.54,-59.771
1598.56,-59.768
1598.58,-59.795
1598.6,-59.769
1598.62,-59.783
1598.64,-59.771
1598.66,-59.803
1598.68,-59.809
1598.7,-59.807
1598.72,-59.806
1598.74,-59.801
1598.76,-59.823
1598.78,-59.829
1598.8,-59.839
1598.82,-59.83
1598.84,-59.828
1598.86,-59.851
1598.88,-59.849
1598.9,-59.849
1598.92,-59.864
1598.94,-59.842
1598.96,-59.861
1598.98,-59.851
1599,-59.877
1599.02,-59.871
1599.04,-59.88
1599.06,-59.898
1599.08,-59.903
1599.1,-59.879
1599.12,-59.889
1599.14,-59.871
1599.16,-59.902
1599.18,-59.911
1599.2,-59.918
1599.22,-59.915
1599.24,-59.913
1599.26,-59.922
1599.28,-59.917
1599.3,-59.891
1599.32,-59.95
1599.34,-59.95
1599.36,-59.939
1599.38,-59.942
1599.4,-59.956
1599.42,-59.959
1599.44,-59.951
1599.46,-59.956
1599.48,-59.984
1599.5,-59.966
1599.52,-59.996
1599.54,-59.972
1599.56,-59.988
1599.58,-59.979
1599.6,-59.982
1599.62,-60
1599.64,-60.013
1599.66,-60.022
1599.68,-59.988
1599.7,-59.967
1599.72,-60.023
1599.74,-60.036
1599.76,-60.007
1599.78,-60.044
1599.8,-60.029
1599.82,-60.044
1599.84,-60.061
1599.86,-60.058
1599.88,-60.052
1599.9,-60.039
1599.92,-60.049
1599.94,-60.072
1599.96,-60.047
1599.98,-60.061
1600,-60.078
