"70BCSV 	",
// AQ6370B OPTICAL SPECTRUM ANALYZER //                 ,
25,
CTRWL,1550
SPAN,100
START WL,1500
STOP WL,1600
WLFREQ,0
REFL,-30
LSCL,5
RESLN,0.2
AVG,1
SMPLAUTO,0
SMPL,5001
SMPLINTVL,0.02
HIGH1,
MEAS,
LSUNT,0
NMSKH,OFF
RESCOR,0
RESPARM,9417
FREQPARM,9417
,
,
,
,
,
,
[TRACE DATA],
1500,-58.555
1500.02,-58.553
1500.04,-58.549
1500.06,-58.538
1500.08,-58.54
1500.1,-58.532
1500.12,-58.525
1500.14,-58.517
1500.16,-58.522
1500.18,-58.512
1500.2,-58.501
1500.22,-58.494
1500.24,-58.494
1500.26,-58.482
1500.28,-58.482
1500.3,-58.466
1500.32,-58.47
1500.34,-58.466
1500.36,-58.452
1500.38,-58.458
1500.4,-58.433
1500.42,-58.449
1500.44,-58.434
1500.46,-58.435
1500.48,-58.419
1500.5,-58.42
1500.52,-58.399
1500.54,-58.409
1500.56,-58.409
1500.58,-58.39
1500.6,-58.381
1500.62,-58.371
1500.64,-58.378
1500.66,-58.364
1500.68,-58.369
1500.7,-58.351
1500.72,-58.361
1500.74,-58.347
1500.76,-58.34
1500.78,-58.341
1500.8,-58.322
1500.82,-58.326
1500.84,-58.323
1500.86,-58.302
1500.88,-58.301
1500.9,-58.297
1500.92,-58.281
1500.94,-58.288
1500.96,-58.283
1500.98,-58.275
1501,-58.252
1501.02,-58.27
1501.04,-58.247
1501.06,-58.254
1501.08,-58.236
1501.1,-58.228
1501.12,-58.237
1501.14,-58.218
1501.16,-58.226
1501.18,-58.212
1501.2,-58.204
1501.22,-58.204
1501.24,-58.197
1501.26,-58.177
1501.28,-58.19
1501.3,-58.177
1501.32,-58.162
1501.34,-58.16
1501.36,-58.156
1501.38,-58.158
1501.4,-58.146
1501.42,-58.145
1501.44,-58.13
1501.46,-58.136
1501.48,-58.128
1501.5,-58.109
1501.52,-58.116
1501.54,-58.104
1501.56,-58.095
1501.58,-58.09
1501.6,-58.092
1501.62,-58.086
1501.64,-58.068
1501.66,-58.07
1501.68,-58.064
1501.7,-58.05
1501.72,-58.053
1501.74,-58.045
1501.76,-58.051
1501.78,-58.03
1501.8,-58.027
1501.82,-58.027
1501.84,-58.015
1501.86,-58.017
1501.88,-58.015
1501.9,-57.994
1501.92,-57.994
1501.94,-57.991
1501.96,-57.995
1501.98,-57.971
1502,-57.968
1502.02,-57.957
1502.04,-57.955
1502.06,-57.948
1502.08,-57.948
1502.1,-57.932
1502.12,-57.925
1502.14,-57.932
1502.16,-57.925
1502.18,-57.902
1502.2,-57.911
1502.22,-57.893
1502.24,-57.898
1502.26,-57.889
1502.28,-57.878
1502.3,-57.868
1502.32,-57.865
1502.34,-57.853
1502.36,-57.871
1502.38,-57.841
1502.4,-57.839
1502.42,-57.839
1502.44,-57.829
1502.46,-57.818
1502.48,-57.81
1502.5,-57.798
1502.52,-57.807
1502.54,-57.793
1502.56,-57.783
1502.58,-57.8
1502.6,-57.763
1502.62,-57.768
1502.64,-57.754
1502.66,-57.755
1502.68,-57.752
1502.7,-57.739
1502.72,-57.729
1502.74,-57.73
1502.76,-57.733
1502.78,-57.719
1502.8,-57.712
1502.82,-57.706
1502.84,-57.708
1502.86,-57.684
1502.88,-57.685
1502.9,-57.673
1502.92,-57.66
1502.94,-57.66
1502.96,-57.655
1502.98,-57.65
1503,-57.642
1503.02,-57.63
1503.04,-57.627
1503.06,-57.609
1503.08,-57.61
1503.1,-57.602
1503.12,-57.596
1503.14,-57.598
1503.16,-57.593
1503.18,-57.574
1503.2,-57.571
1503.22,-57.57
1503.24,-57.565
1503.26,-57.556
1503.28,-57.542
1503.3,-57.54
1503.32,-57.531
1503.34,-57.526
1503.36,-57.512
1503.38,-57.515
1503.4,-57.495
1503.42,-57.498
1503.44,-57.489
1503.46,-57.481
1503.48,-57.469
1503.5,-57.463
1503.52,-57.462
1503.54,-57.458
1503.56,-57.444
1503.58,-57.451
1503.6,-57.421
1503.62,-57.421
1503.64,-57.418
1503.66,-57.4
1503.68,-57.4
1503.7,-57.395
1503.72,-57.384
1503.74,-57.378
1503.76,-57.367
1503.78,-57.373
1503.8,-57.364
1503.82,-57.358
1503.84,-57.349
1503.86,-57.332
1503.88,-57.327
1503.9,-57.323
1503.92,-57.323
1503.94,-57.321
1503.96,-57.293
1503.98,-57.294
1504,-57.297
1504.02,-57.287
1504.04,-57.289
1504.06,-57.271
1504.08,-57.264
1504.1,-57.266
1504.12,-57.253
1504.14,-57.233
1504.16,-57.24
1504.18,-57.227
1504.2,-57.218
1504.22,-57.208
1504.24,-57.211
1504.26,-57.204
1504.28,-57.196
1504.3,-57.183
1504.32,-57.178
1504.34,-57.166
1504.36,-57.166
1504.38,-57.154
1504.4,-57.148
1504.42,-57.139
1504.44,-57.134
1504.46,-57.116
1504.48,-57.123
1504.5,-57.119
1504.52,-57.098
1504.54,-57.093
1504.56,-57.086
1504.58,-57.087
1504.6,-57.069
1504.62,-57.061
1504.64,-57.052
1504.66,-57.049
1504.68,-57.039
1504.7,-57.036
1504.72,-57.029
1504.74,-57.031
1504.76,-57.023
1504.78,-57.01
1504.8,-57.003
1504.82,-56.992
1504.84,-56.976
1504.86,-56.994
1504.88,-56.965
1504.9,-56.964
1504.92,-56.947
1504.94,-56.947
1504.96,-56.945
1504.98,-56.932
1505,-56.931
1505.02,-56.922
1505.04,-56.917
1505.06,-56.902
1505.08,-56.897
1505.1,-56.888
1505.12,-56.888
1505.14,-56.869
1505.16,-56.859
1505.18,-56.85
1505.2,-56.856
1505.22,-56.842
1505.24,-56.824
1505.26,-56.833
1505.28,-56.817
1505.3,-56.805
1505.32,-56.811
1505.34,-56.795
1505.36,-56.781
1505.38,-56.776
1505.4,-56.771
1505.42,-56.766
1505.44,-56.758
1505.46,-56.752
1505.48,-56.735
1505.5,-56.733
1505.52,-56.728
1505.54,-56.712
1505.56,-56.709
1505.58,-56.7
1505.6,-56.695
1505.62,-56.683
1505.64,-56.672
1505.66,-56.669
1505.68,-56.669
1505.7,-56.646
1505.72,-56.643
1505.74,-56.634
1505.76,-56.63
1505.78,-56.632
1505.8,-56.614
1505.82,-56.612
1505.84,-56.594
1505.86,-56.597
1505.88,-56.59
1505.9,-56.586
1505.92,-56.565
1505.94,-56.568
1505.96,-56.549
1505.98,-56.556
1506,-56.544
1506.02,-56.534
1506.04,-56.527
1506.06,-56.507
1506.08,-56.506
1506.1,-56.493
1506.12,-56.495
1506.14,-56.483
1506.16,-56.471
1506.18,-56.472
1506.2,-56.462
1506.22,-56.452
1506.24,-56.441
1506.26,-56.433
1506.28,-56.428
1506.3,-56.416
1506.32,-56.405
1506.34,-56.403
1506.36,-56.395
1506.38,-56.389
1506.4,-56.371
1506.42,-56.382
1506.44,-56.356
1506.46,-56.359
1506.48,-56.35
1506.5,-56.337
1506.52,-56.321
1506.54,-56.315
1506.56,-56.303
1506.58,-56.3
1506.6,-56.29
1506.62,-56.286
1506.64,-56.278
1506.66,-56.262
1506.68,-56.259
1506.7,-56.255
1506.72,-56.244
1506.74,-56.238
1506.76,-56.236
1506.78,-56.213
1506.8,-56.211
1506.82,-56.2
1506.84,-56.201
1506.86,-56.187
1506.88,-56.186
1506.9,-56.173
1506.92,-56.164
1506.94,-56.156
1506.96,-56.143
1506.98,-56.14
1507,-56.132
1507.02,-56.121
1507.04,-56.114
1507.06,-56.109
1507.08,-56.103
1507.1,-56.089
1507.12,-56.081
1507.14,-56.077
1507.16,-56.066
1507.18,-56.051
1507.2,-56.05
1507.22,-56.044
1507.24,-56.027
1507.26,-56.027
1507.28,-56.013
1507.3,-56.01
1507.32,-56.004
1507.34,-55.989
1507.36,-55.988
1507.38,-55.976
1507.4,-55.962
1507.42,-55.952
1507.44,-55.943
1507.46,-55.927
1507.48,-55.928
1507.5,-55.918
1507.52,-55.91
1507.54,-55.897
1507.56,-55.888
1507.58,-55.883
1507.6,-55.872
1507.62,-55.867
1507.64,-55.861
1507.66,-55.85
1507.68,-55.836
1507.7,-55.829
1507.72,-55.82
1507.74,-55.823
1507.76,-55.798
1507.78,-55.791
1507.8,-55.785
1507.82,-55.779
1507.84,-55.768
1507.86,-55.76
1507.88,-55.751
1507.9,-55.74
1507.92,-55.735
1507.94,-55.729
1507.96,-55.718
1507.98,-55.71
1508,-55.694
1508.02,-55.696
1508.04,-55.692
1508.06,-55.691
1508.08,-55.681
1508.1,-55.659
1508.12,-55.653
1508.14,-55.635
1508.16,-55.638
1508.18,-55.632
1508.2,-55.62
1508.22,-55.61
1508.24,-55.602
1508.26,-55.592
1508.28,-55.584
1508.3,-55.573
1508.32,-55.569
1508.34,-55.566
1508.36,-55.556
1508.38,-55.547
1508.4,-55.54
1508.42,-55.52
1508.44,-55.506
1508.46,-55.506
1508.48,-55.498
1508.5,-55.489
1508.52,-55.48
1508.54,-55.465
1508.56,-55.45
1508.58,-55.452
1508.6,-55.445
1508.62,-55.438
1508.64,-55.421
1508.66,-55.417
1508.68,-55.401
1508.7,-55.396
1508.72,-55.382
1508.74,-55.386
1508.76,-55.378
1508.78,-55.367
1508.8,-55.356
1508.82,-55.348
1508.84,-55.346
1508.86,-55.336
1508.88,-55.323
1508.9,-55.309
1508.92,-55.308
1508.94,-55.296
1508.96,-55.29
1508.98,-55.286
1509,-55.269
1509.02,-55.258
1509.04,-55.25
1509.06,-55.238
1509.08,-55.241
1509.1,-55.219
1509.12,-55.21
1509.14,-55.207
1509.16,-55.194
1509.18,-55.191
1509.2,-55.173
1509.22,-55.163
1509.24,-55.155
1509.26,-55.149
1509.28,-55.138
1509.3,-55.136
1509.32,-55.117
1509.34,-55.111
1509.36,-55.102
1509.38,-55.088
1509.4,-55.079
1509.42,-55.068
1509.44,-55.063
1509.46,-55.061
1509.48,-55.043
1509.5,-55.036
1509.52,-55.03
1509.54,-55.01
1509.56,-55.006
1509.58,-54.994
1509.6,-54.983
1509.62,-54.973
1509.64,-54.968
1509.66,-54.962
1509.68,-54.944
1509.7,-54.939
1509.72,-54.932
1509.74,-54.915
1509.76,-54.912
1509.78,-54.908
1509.8,-54.894
1509.82,-54.884
1509.84,-54.875
1509.86,-54.865
1509.88,-54.858
1509.9,-54.85
1509.92,-54.841
1509.94,-54.83
1509.96,-54.824
1509.98,-54.809
1510,-54.807
1510.02,-54.789
1510.04,-54.78
1510.06,-54.769
1510.08,-54.755
1510.1,-54.744
1510.12,-54.744
1510.14,-54.736
1510.16,-54.711
1510.18,-54.706
1510.2,-54.694
1510.22,-54.685
1510.24,-54.676
1510.26,-54.666
1510.28,-54.647
1510.3,-54.638
1510.32,-54.628
1510.34,-54.619
1510.36,-54.609
1510.38,-54.603
1510.4,-54.583
1510.42,-54.576
1510.44,-54.559
1510.46,-54.559
1510.48,-54.544
1510.5,-54.534
1510.52,-54.515
1510.54,-54.514
1510.56,-54.504
1510.58,-54.481
1510.6,-54.479
1510.62,-54.469
1510.64,-54.455
1510.66,-54.453
1510.68,-54.429
1510.7,-54.42
1510.72,-54.413
1510.74,-54.402
1510.76,-54.39
1510.78,-54.381
1510.8,-54.364
1510.82,-54.361
1510.84,-54.346
1510.86,-54.334
1510.88,-54.324
1510.9,-54.315
1510.92,-54.311
1510.94,-54.295
1510.96,-54.287
1510.98,-54.27
1511,-54.256
1511.02,-54.251
1511.04,-54.235
1511.06,-54.225
1511.08,-54.212
1511.1,-54.196
1511.12,-54.189
1511.14,-54.179
1511.16,-54.168
1511.18,-54.157
1511.2,-54.145
1511.22,-54.134
1511.24,-54.125
1511.26,-54.115
1511.28,-54.104
1511.3,-54.088
1511.32,-54.079
1511.34,-54.064
1511.36,-54.053
1511.38,-54.046
1511.4,-54.03
1511.42,-54.022
1511.44,-54.011
1511.46,-53.996
1511.48,-53.985
1511.5,-53.974
1511.52,-53.96
1511.54,-53.945
1511.56,-53.935
1511.58,-53.928
1511.6,-53.914
1511.62,-53.905
1511.64,-53.889
1511.66,-53.88
1511.68,-53.87
1511.7,-53.853
1511.72,-53.844
1511.74,-53.836
1511.76,-53.821
1511.78,-53.81
1511.8,-53.799
1511.82,-53.784
1511.84,-53.773
1511.86,-53.77
1511.88,-53.755
1511.9,-53.74
1511.92,-53.735
1511.94,-53.721
1511.96,-53.706
1511.98,-53.689
1512,-53.682
1512.02,-53.666
1512.04,-53.656
1512.06,-53.646
1512.08,-53.634
1512.1,-53.618
1512.12,-53.614
1512.14,-53.598
1512.16,-53.586
1512.18,-53.579
1512.2,-53.568
1512.22,-53.552
1512.24,-53.542
1512.26,-53.531
1512.28,-53.516
1512.3,-53.505
1512.32,-53.494
1512.34,-53.482
1512.36,-53.469
1512.38,-53.457
1512.4,-53.45
1512.42,-53.441
1512.44,-53.424
1512.46,-53.414
1512.48,-53.402
1512.5,-53.386
1512.52,-53.377
1512.54,-53.367
1512.56,-53.354
1512.58,-53.343
1512.6,-53.33
1512.62,-53.318
1512.64,-53.303
1512.66,-53.293
1512.68,-53.283
1512.7,-53.271
1512.72,-53.258
1512.74,-53.248
1512.76,-53.235
1512.78,-53.222
1512.8,-53.214
1512.82,-53.199
1512.84,-53.191
1512.86,-53.174
1512.88,-53.165
1512.9,-53.155
1512.92,-53.138
1512.94,-53.131
1512.96,-53.115
1512.98,-53.104
1513,-53.09
1513.02,-53.076
1513.04,-53.067
1513.06,-53.051
1513.08,-53.042
1513.1,-53.027
1513.12,-53.015
1513.14,-53.002
1513.16,-52.988
1513.18,-52.977
1513.2,-52.962
1513.22,-52.949
1513.24,-52.939
1513.26,-52.928
1513.28,-52.918
1513.3,-52.906
1513.32,-52.889
1513.34,-52.88
1513.36,-52.864
1513.38,-52.849
1513.4,-52.841
1513.42,-52.827
1513.44,-52.811
1513.46,-52.797
1513.48,-52.788
1513.5,-52.779
1513.52,-52.76
1513.54,-52.748
1513.56,-52.737
1513.58,-52.725
1513.6,-52.715
1513.62,-52.701
1513.64,-52.688
1513.66,-52.674
1513.68,-52.661
1513.7,-52.646
1513.72,-52.636
1513.74,-52.622
1513.76,-52.61
1513.78,-52.596
1513.8,-52.583
1513.82,-52.571
1513.84,-52.558
1513.86,-52.545
1513.88,-52.528
1513.9,-52.518
1513.92,-52.503
1513.94,-52.491
1513.96,-52.48
1513.98,-52.471
1514,-52.447
1514.02,-52.44
1514.04,-52.424
1514.06,-52.412
1514.08,-52.394
1514.1,-52.38
1514.12,-52.369
1514.14,-52.353
1514.16,-52.34
1514.18,-52.331
1514.2,-52.319
1514.22,-52.304
1514.24,-52.293
1514.26,-52.278
1514.28,-52.264
1514.3,-52.255
1514.32,-52.236
1514.34,-52.221
1514.36,-52.206
1514.38,-52.194
1514.4,-52.181
1514.42,-52.171
1514.44,-52.155
1514.46,-52.14
1514.48,-52.128
1514.5,-52.116
1514.52,-52.1
1514.54,-52.085
1514.56,-52.074
1514.58,-52.059
1514.6,-52.047
1514.62,-52.035
1514.64,-52.02
1514.66,-52.006
1514.68,-51.998
1514.7,-51.98
1514.72,-51.967
1514.74,-51.951
1514.76,-51.936
1514.78,-51.924
1514.8,-51.91
1514.82,-51.896
1514.84,-51.882
1514.86,-51.868
1514.88,-51.852
1514.9,-51.84
1514.92,-51.827
1514.94,-51.808
1514.96,-51.796
1514.98,-51.777
1515,-51.767
1515.02,-51.749
1515.04,-51.732
1515.06,-51.723
1515.08,-51.705
1515.1,-51.689
1515.12,-51.672
1515.14,-51.662
1515.16,-51.649
1515.18,-51.631
1515.2,-51.614
1515.22,-51.597
1515.24,-51.586
1515.26,-51.573
1515.28,-51.555
1515.3,-51.541
1515.32,-51.526
1515.34,-51.509
1515.36,-51.497
1515.38,-51.483
1515.4,-51.472
1515.42,-51.457
1515.44,-51.441
1515.46,-51.427
1515.48,-51.415
1515.5,-51.398
1515.52,-51.381
1515.54,-51.366
1515.56,-51.354
1515.58,-51.343
1515.6,-51.324
1515.62,-51.308
1515.64,-51.293
1515.66,-51.274
1515.68,-51.265
1515.7,-51.25
1515.72,-51.234
1515.74,-51.217
1515.76,-51.206
1515.78,-51.19
1515.8,-51.173
1515.82,-51.156
1515.84,-51.143
1515.86,-51.128
1515.88,-51.111
1515.9,-51.094
1515.92,-51.074
1515.94,-51.058
1515.96,-51.045
1515.98,-51.029
1516,-51.011
1516.02,-50.992
1516.04,-50.977
1516.06,-50.955
1516.08,-50.943
1516.1,-50.932
1516.12,-50.914
1516.14,-50.901
1516.16,-50.883
1516.18,-50.862
1516.2,-50.848
1516.22,-50.831
1516.24,-50.816
1516.26,-50.801
1516.28,-50.787
1516.3,-50.769
1516.32,-50.756
1516.34,-50.739
1516.36,-50.722
1516.38,-50.706
1516.4,-50.689
1516.42,-50.672
1516.44,-50.658
1516.46,-50.641
1516.48,-50.621
1516.5,-50.606
1516.52,-50.586
1516.54,-50.571
1516.56,-50.553
1516.58,-50.538
1516.6,-50.517
1516.62,-50.501
1516.64,-50.485
1516.66,-50.464
1516.68,-50.449
1516.7,-50.432
1516.72,-50.41
1516.74,-50.395
1516.76,-50.376
1516.78,-50.358
1516.8,-50.344
1516.82,-50.324
1516.84,-50.304
1516.86,-50.293
1516.88,-50.274
1516.9,-50.255
1516.92,-50.236
1516.94,-50.216
1516.96,-50.201
1516.98,-50.179
1517,-50.159
1517.02,-50.146
1517.04,-50.126
1517.06,-50.107
1517.08,-50.088
1517.1,-50.07
1517.12,-50.053
1517.14,-50.034
1517.16,-50.015
1517.18,-49.989
1517.2,-49.975
1517.22,-49.958
1517.24,-49.941
1517.26,-49.921
1517.28,-49.902
1517.3,-49.885
1517.32,-49.868
1517.34,-49.849
1517.36,-49.829
1517.38,-49.813
1517.4,-49.794
1517.42,-49.776
1517.44,-49.759
1517.46,-49.736
1517.48,-49.716
1517.5,-49.698
1517.52,-49.68
1517.54,-49.66
1517.56,-49.64
1517.58,-49.622
1517.6,-49.601
1517.62,-49.577
1517.64,-49.558
1517.66,-49.538
1517.68,-49.514
1517.7,-49.493
1517.72,-49.474
1517.74,-49.456
1517.76,-49.436
1517.78,-49.412
1517.8,-49.394
1517.82,-49.372
1517.84,-49.352
1517.86,-49.33
1517.88,-49.307
1517.9,-49.288
1517.92,-49.265
1517.94,-49.245
1517.96,-49.223
1517.98,-49.208
1518,-49.185
1518.02,-49.162
1518.04,-49.142
1518.06,-49.122
1518.08,-49.102
1518.1,-49.083
1518.12,-49.058
1518.14,-49.037
1518.16,-49.013
1518.18,-48.995
1518.2,-48.974
1518.22,-48.954
1518.24,-48.933
1518.26,-48.907
1518.28,-48.891
1518.3,-48.869
1518.32,-48.847
1518.34,-48.826
1518.36,-48.803
1518.38,-48.783
1518.4,-48.758
1518.42,-48.729
1518.44,-48.714
1518.46,-48.691
1518.48,-48.669
1518.5,-48.644
1518.52,-48.623
1518.54,-48.6
1518.56,-48.573
1518.58,-48.551
1518.6,-48.532
1518.62,-48.505
1518.64,-48.477
1518.66,-48.456
1518.68,-48.434
1518.7,-48.411
1518.72,-48.382
1518.74,-48.366
1518.76,-48.341
1518.78,-48.314
1518.8,-48.294
1518.82,-48.265
1518.84,-48.243
1518.86,-48.217
1518.88,-48.195
1518.9,-48.174
1518.92,-48.15
1518.94,-48.127
1518.96,-48.097
1518.98,-48.057
1519,-48.044
1519.02,-48.033
1519.04,-48.003
1519.06,-47.977
1519.08,-47.952
1519.1,-47.927
1519.12,-47.9
1519.14,-47.879
1519.16,-47.855
1519.18,-47.824
1519.2,-47.798
1519.22,-47.775
1519.24,-47.747
1519.26,-47.724
1519.28,-47.7
1519.3,-47.677
1519.32,-47.642
1519.34,-47.614
1519.36,-47.588
1519.38,-47.562
1519.4,-47.543
1519.42,-47.519
1519.44,-47.49
1519.46,-47.461
1519.48,-47.437
1519.5,-47.408
1519.52,-47.379
1519.54,-47.352
1519.56,-47.324
1519.58,-47.295
1519.6,-47.266
1519.62,-47.243
1519.64,-47.214
1519.66,-47.183
1519.68,-47.159
1519.7,-47.127
1519.72,-47.1
1519.74,-47.073
1519.76,-47.046
1519.78,-47.012
1519.8,-46.985
1519.82,-46.955
1519.84,-46.927
1519.86,-46.904
1519.88,-46.875
1519.9,-46.839
1519.92,-46.813
1519.94,-46.783
1519.96,-46.757
1519.98,-46.731
1520,-46.696
1520.02,-46.665
1520.04,-46.635
1520.06,-46.606
1520.08,-46.576
1520.1,-46.543
1520.12,-46.509
1520.14,-46.476
1520.16,-46.445
1520.18,-46.417
1520.2,-46.387
1520.22,-46.354
1520.24,-46.325
1520.26,-46.297
1520.28,-46.262
1520.3,-46.233
1520.32,-46.196
1520.34,-46.166
1520.36,-46.137
1520.38,-46.102
1520.4,-46.07
1520.42,-46.038
1520.44,-46.004
1520.46,-45.969
1520.48,-45.935
1520.5,-45.903
1520.52,-45.872
1520.54,-45.843
1520.56,-45.811
1520.58,-45.775
1520.6,-45.741
1520.62,-45.706
1520.64,-45.672
1520.66,-45.639
1520.68,-45.605
1520.7,-45.571
1520.72,-45.535
1520.74,-45.5
1520.76,-45.463
1520.78,-45.433
1520.8,-45.398
1520.82,-45.361
1520.84,-45.326
1520.86,-45.296
1520.88,-45.256
1520.9,-45.222
1520.92,-45.182
1520.94,-45.149
1520.96,-45.113
1520.98,-45.076
1521,-45.043
1521.02,-45.007
1521.04,-44.969
1521.06,-44.935
1521.08,-44.897
1521.1,-44.858
1521.12,-44.827
1521.14,-44.79
1521.16,-44.756
1521.18,-44.719
1521.2,-44.684
1521.22,-44.646
1521.24,-44.608
1521.26,-44.571
1521.28,-44.532
1521.3,-44.496
1521.32,-44.456
1521.34,-44.421
1521.36,-44.381
1521.38,-44.345
1521.4,-44.305
1521.42,-44.266
1521.44,-44.23
1521.46,-44.194
1521.48,-44.153
1521.5,-44.119
1521.52,-44.078
1521.54,-44.039
1521.56,-44.001
1521.58,-43.963
1521.6,-43.918
1521.62,-43.879
1521.64,-43.839
1521.66,-43.802
1521.68,-43.764
1521.7,-43.724
1521.72,-43.683
1521.74,-43.646
1521.76,-43.6
1521.78,-43.566
1521.8,-43.528
1521.82,-43.483
1521.84,-43.449
1521.86,-43.406
1521.88,-43.368
1521.9,-43.329
1521.92,-43.289
1521.94,-43.251
1521.96,-43.212
1521.98,-43.171
1522,-43.134
1522.02,-43.094
1522.04,-43.054
1522.06,-43.014
1522.08,-42.973
1522.1,-42.932
1522.12,-42.891
1522.14,-42.848
1522.16,-42.809
1522.18,-42.769
1522.2,-42.726
1522.22,-42.685
1522.24,-42.643
1522.26,-42.602
1522.28,-42.56
1522.3,-42.517
1522.32,-42.479
1522.34,-42.437
1522.36,-42.395
1522.38,-42.351
1522.4,-42.308
1522.42,-42.265
1522.44,-42.224
1522.46,-42.18
1522.48,-42.137
1522.5,-42.097
1522.52,-42.055
1522.54,-42.011
1522.56,-41.968
1522.58,-41.924
1522.6,-41.88
1522.62,-41.835
1522.64,-41.795
1522.66,-41.752
1522.68,-41.71
1522.7,-41.667
1522.72,-41.629
1522.74,-41.586
1522.76,-41.544
1522.78,-41.501
1522.8,-41.461
1522.82,-41.418
1522.84,-41.376
1522.86,-41.336
1522.88,-41.291
1522.9,-41.249
1522.92,-41.207
1522.94,-41.167
1522.96,-41.126
1522.98,-41.084
1523,-41.04
1523.02,-41.001
1523.04,-40.956
1523.06,-40.914
1523.08,-40.871
1523.1,-40.829
1523.12,-40.787
1523.14,-40.747
1523.16,-40.705
1523.18,-40.663
1523.2,-40.623
1523.22,-40.579
1523.24,-40.538
1523.26,-40.496
1523.28,-40.447
1523.3,-40.411
1523.32,-40.365
1523.34,-40.321
1523.36,-40.281
1523.38,-40.237
1523.4,-40.194
1523.42,-40.146
1523.44,-40.105
1523.46,-40.062
1523.48,-40.022
1523.5,-39.982
1523.52,-39.936
1523.54,-39.894
1523.56,-39.853
1523.58,-39.812
1523.6,-39.771
1523.62,-39.729
1523.64,-39.681
1523.66,-39.631
1523.68,-39.592
1523.7,-39.549
1523.72,-39.516
1523.74,-39.471
1523.76,-39.429
1523.78,-39.386
1523.8,-39.342
1523.82,-39.301
1523.84,-39.261
1523.86,-39.221
1523.88,-39.182
1523.9,-39.139
1523.92,-39.094
1523.94,-39.052
1523.96,-39.012
1523.98,-38.971
1524,-38.927
1524.02,-38.886
1524.04,-38.846
1524.06,-38.804
1524.08,-38.762
1524.1,-38.722
1524.12,-38.68
1524.14,-38.64
1524.16,-38.599
1524.18,-38.56
1524.2,-38.522
1524.22,-38.477
1524.24,-38.437
1524.26,-38.394
1524.28,-38.353
1524.3,-38.309
1524.32,-38.27
1524.34,-38.23
1524.36,-38.187
1524.38,-38.146
1524.4,-38.107
1524.42,-38.073
1524.44,-38.037
1524.46,-37.998
1524.48,-37.959
1524.5,-37.915
1524.52,-37.877
1524.54,-37.83
1524.56,-37.798
1524.58,-37.75
1524.6,-37.705
1524.62,-37.676
1524.64,-37.639
1524.66,-37.599
1524.68,-37.556
1524.7,-37.518
1524.72,-37.476
1524.74,-37.433
1524.76,-37.391
1524.78,-37.353
1524.8,-37.318
1524.82,-37.28
1524.84,-37.238
1524.86,-37.196
1524.88,-37.154
1524.9,-37.115
1524.92,-37.076
1524.94,-37.036
1524.96,-36.999
1524.98,-36.967
1525,-36.925
1525.02,-36.886
1525.04,-36.85
1525.06,-36.812
1525.08,-36.773
1525.1,-36.738
1525.12,-36.702
1525.14,-36.665
1525.16,-36.626
1525.18,-36.589
1525.2,-36.54
1525.22,-36.494
1525.24,-36.47
1525.26,-36.423
1525.28,-36.388
1525.3,-36.345
1525.32,-36.305
1525.34,-36.267
1525.36,-36.232
1525.38,-36.194
1525.4,-36.157
1525.42,-36.123
1525.44,-36.083
1525.46,-36.048
1525.48,-35.994
1525.5,-35.97
1525.52,-35.934
1525.54,-35.899
1525.56,-35.854
1525.58,-35.8
1525.6,-35.78
1525.62,-35.748
1525.64,-35.707
1525.66,-35.666
1525.68,-35.628
1525.7,-35.589
1525.72,-35.563
1525.74,-35.526
1525.76,-35.481
1525.78,-35.441
1525.8,-35.4
1525.82,-35.359
1525.84,-35.333
1525.86,-35.297
1525.88,-35.259
1525.9,-35.206
1525.92,-35.169
1525.94,-35.129
1525.96,-35.087
1525.98,-35.049
1526,-35.012
1526.02,-34.975
1526.04,-34.935
1526.06,-34.897
1526.08,-34.861
1526.1,-34.832
1526.12,-34.795
1526.14,-34.759
1526.16,-34.724
1526.18,-34.692
1526.2,-34.654
1526.22,-34.607
1526.24,-34.568
1526.26,-34.532
1526.28,-34.498
1526.3,-34.465
1526.32,-34.427
1526.34,-34.392
1526.36,-34.356
1526.38,-34.322
1526.4,-34.292
1526.42,-34.245
1526.44,-34.215
1526.46,-34.181
1526.48,-34.147
1526.5,-34.102
1526.52,-34.07
1526.54,-34.035
1526.56,-33.998
1526.58,-33.963
1526.6,-33.923
1526.62,-33.885
1526.64,-33.852
1526.66,-33.828
1526.68,-33.798
1526.7,-33.761
1526.72,-33.726
1526.74,-33.7
1526.76,-33.659
1526.78,-33.634
1526.8,-33.598
1526.82,-33.562
1526.84,-33.523
1526.86,-33.478
1526.88,-33.44
1526.9,-33.402
1526.92,-33.367
1526.94,-33.329
1526.96,-33.289
1526.98,-33.25
1527,-33.208
1527.02,-33.176
1527.04,-33.137
1527.06,-33.092
1527.08,-33.058
1527.1,-33.009
1527.12,-32.973
1527.14,-32.934
1527.16,-32.89
1527.18,-32.856
1527.2,-32.818
1527.22,-32.78
1527.24,-32.745
1527.26,-32.709
1527.28,-32.674
1527.3,-32.635
1527.32,-32.591
1527.34,-32.557
1527.36,-32.531
1527.38,-32.499
1527.4,-32.464
1527.42,-32.427
1527.44,-32.393
1527.46,-32.363
1527.48,-32.326
1527.5,-32.29
1527.52,-32.255
1527.54,-32.218
1527.56,-32.183
1527.58,-32.144
1527.6,-32.112
1527.62,-32.076
1527.64,-32.035
1527.66,-32.006
1527.68,-31.962
1527.7,-31.927
1527.72,-31.899
1527.74,-31.86
1527.76,-31.824
1527.78,-31.778
1527.8,-31.735
1527.82,-31.698
1527.84,-31.661
1527.86,-31.629
1527.88,-31.591
1527.9,-31.558
1527.92,-31.52
1527.94,-31.484
1527.96,-31.446
1527.98,-31.406
1528,-31.372
1528.02,-31.335
1528.04,-31.294
1528.06,-31.255
1528.08,-31.217
1528.1,-31.179
1528.12,-31.139
1528.14,-31.098
1528.16,-31.059
1528.18,-31.022
1528.2,-30.984
1528.22,-30.948
1528.24,-30.913
1528.26,-30.864
1528.28,-30.827
1528.3,-30.791
1528.32,-30.763
1528.34,-30.728
1528.36,-30.692
1528.38,-30.665
1528.4,-30.635
1528.42,-30.601
1528.44,-30.568
1528.46,-30.533
1528.48,-30.501
1528.5,-30.47
1528.52,-30.438
1528.54,-30.405
1528.56,-30.372
1528.58,-30.337
1528.6,-30.301
1528.62,-30.265
1528.64,-30.231
1528.66,-30.193
1528.68,-30.157
1528.7,-30.122
1528.72,-30.078
1528.74,-30.035
1528.76,-29.989
1528.78,-29.949
1528.8,-29.904
1528.82,-29.862
1528.84,-29.82
1528.86,-29.776
1528.88,-29.74
1528.9,-29.695
1528.92,-29.654
1528.94,-29.617
1528.96,-29.572
1528.98,-29.528
1529,-29.488
1529.02,-29.446
1529.04,-29.401
1529.06,-29.354
1529.08,-29.311
1529.1,-29.266
1529.12,-29.228
1529.14,-29.189
1529.16,-29.147
1529.18,-29.106
1529.2,-29.07
1529.22,-29.032
1529.24,-29
1529.26,-28.965
1529.28,-28.926
1529.3,-28.89
1529.32,-28.857
1529.34,-28.816
1529.36,-28.774
1529.38,-28.734
1529.4,-28.695
1529.42,-28.656
1529.44,-28.616
1529.46,-28.574
1529.48,-28.534
1529.5,-28.488
1529.52,-28.445
1529.54,-28.4
1529.56,-28.361
1529.58,-28.327
1529.6,-28.283
1529.62,-28.239
1529.64,-28.198
1529.66,-28.156
1529.68,-28.118
1529.7,-28.075
1529.72,-28.04
1529.74,-28.006
1529.76,-27.989
1529.78,-27.98
1529.8,-27.931
1529.82,-27.857
1529.84,-27.824
1529.86,-27.794
1529.88,-27.801
1529.9,-27.765
1529.92,-27.746
1529.94,-27.69
1529.96,-27.636
1529.98,-27.616
1530,-27.571
1530.02,-27.499
1530.04,-27.455
1530.06,-27.414
1530.08,-27.384
1530.1,-27.368
1530.12,-27.391
1530.14,-27.412
1530.16,-27.388
1530.18,-27.341
1530.2,-27.32
1530.22,-27.23
1530.24,-27.144
1530.26,-27.154
1530.28,-27.163
1530.3,-27.168
1530.32,-27.097
1530.34,-27.086
1530.36,-27.058
1530.38,-27.018
1530.4,-26.996
1530.42,-26.946
1530.44,-26.92
1530.46,-26.886
1530.48,-26.891
1530.5,-26.877
1530.52,-26.858
1530.54,-26.897
1530.56,-26.856
1530.58,-26.795
1530.6,-26.759
1530.62,-26.667
1530.64,-26.659
1530.66,-26.669
1530.68,-26.639
1530.7,-26.608
1530.72,-26.572
1530.74,-26.551
1530.76,-26.506
1530.78,-26.518
1530.8,-26.484
1530.82,-26.398
1530.84,-26.376
1530.86,-26.315
1530.88,-26.369
1530.9,-26.257
1530.92,-26.306
1530.94,-26.228
1530.96,-26.153
1530.98,-26.215
1531,-26.163
1531.02,-26.077
1531.04,-26.087
1531.06,-26.063
1531.08,-26.026
1531.1,-25.953
1531.12,-25.959
1531.14,-25.921
1531.16,-25.878
1531.18,-25.893
1531.2,-25.788
1531.22,-25.801
1531.24,-25.729
1531.26,-25.73
1531.28,-25.725
1531.3,-25.814
1531.32,-25.771
1531.34,-25.645
1531.36,-25.636
1531.38,-25.613
1531.4,-25.588
1531.42,-25.597
1531.44,-25.501
1531.46,-25.556
1531.48,-25.471
1531.5,-25.373
1531.52,-25.408
1531.54,-25.351
1531.56,-25.086
1531.58,-25.059
1531.6,-24.394
1531.62,-23.497
1531.64,-22.255
1531.66,-20.8
1531.68,-20.321
1531.7,-20.51
1531.72,-20.771
1531.74,-22.021
1531.76,-20.538
1531.78,-21.857
1531.8,-23.496
1531.82,-24.614
1531.84,-24.351
1531.86,-24.442
1531.88,-24.706
1531.9,-24.748
1531.92,-24.106
1531.94,-23.725
1531.96,-24.13
1531.98,-24.729
1532,-24.738
1532.02,-24.501
1532.04,-24.84
1532.06,-24.689
1532.08,-25.063
1532.1,-25.062
1532.12,-25.072
1532.14,-25.238
1532.16,-25.173
1532.18,-25.187
1532.2,-25.303
1532.22,-25.385
1532.24,-25.415
1532.26,-25.473
1532.28,-25.502
1532.3,-25.573
1532.32,-25.599
1532.34,-25.582
1532.36,-25.626
1532.38,-25.664
1532.4,-25.687
1532.42,-25.718
1532.44,-25.729
1532.46,-25.738
1532.48,-25.779
1532.5,-25.777
1532.52,-25.856
1532.54,-25.883
1532.56,-25.905
1532.58,-26.01
1532.6,-25.999
1532.62,-26.065
1532.64,-26.152
1532.66,-26.186
1532.68,-26.259
1532.7,-26.311
1532.72,-26.3
1532.74,-26.363
1532.76,-26.373
1532.78,-26.359
1532.8,-26.234
1532.82,-26.193
1532.84,-26.315
1532.86,-26.435
1532.88,-26.524
1532.9,-26.535
1532.92,-26.536
1532.94,-26.637
1532.96,-26.642
1532.98,-26.768
1533,-26.872
1533.02,-26.941
1533.04,-26.996
1533.06,-27.015
1533.08,-26.99
1533.1,-27.029
1533.12,-27.046
1533.14,-27.129
1533.16,-27.238
1533.18,-27.318
1533.2,-27.3
1533.22,-27.333
1533.24,-27.348
1533.26,-27.309
1533.28,-27.341
1533.3,-27.41
1533.32,-27.445
1533.34,-27.499
1533.36,-27.503
1533.38,-27.533
1533.4,-27.529
1533.42,-27.479
1533.44,-27.601
1533.46,-27.702
1533.48,-27.704
1533.5,-27.692
1533.52,-27.747
1533.54,-27.791
1533.56,-27.777
1533.58,-27.87
1533.6,-27.968
1533.62,-28.001
1533.64,-28.016
1533.66,-28.065
1533.68,-28.082
1533.7,-28.128
1533.72,-28.18
1533.74,-28.313
1533.76,-28.421
1533.78,-28.41
1533.8,-28.446
1533.82,-28.472
1533.84,-28.495
1533.86,-28.577
1533.88,-28.678
1533.9,-28.736
1533.92,-28.766
1533.94,-28.818
1533.96,-28.86
1533.98,-28.947
1534,-29.047
1534.02,-29.13
1534.04,-29.16
1534.06,-29.194
1534.08,-29.22
1534.1,-29.267
1534.12,-29.327
1534.14,-29.402
1534.16,-29.468
1534.18,-29.535
1534.2,-29.571
1534.22,-29.629
1534.24,-29.689
1534.26,-29.749
1534.28,-29.805
1534.3,-29.869
1534.32,-29.924
1534.34,-29.981
1534.36,-30.034
1534.38,-30.091
1534.4,-30.149
1534.42,-30.201
1534.44,-30.255
1534.46,-30.329
1534.48,-30.365
1534.5,-30.395
1534.52,-30.441
1534.54,-30.491
1534.56,-30.544
1534.58,-30.594
1534.6,-30.646
1534.62,-30.697
1534.64,-30.75
1534.66,-30.803
1534.68,-30.86
1534.7,-30.915
1534.72,-30.969
1534.74,-31.028
1534.76,-31.082
1534.78,-31.135
1534.8,-31.19
1534.82,-31.246
1534.84,-31.3
1534.86,-31.359
1534.88,-31.416
1534.9,-31.472
1534.92,-31.526
1534.94,-31.579
1534.96,-31.633
1534.98,-31.685
1535,-31.738
1535.02,-31.793
1535.04,-31.846
1535.06,-31.898
1535.08,-31.948
1535.1,-32.001
1535.12,-32.05
1535.14,-32.102
1535.16,-32.151
1535.18,-32.203
1535.2,-32.254
1535.22,-32.306
1535.24,-32.352
1535.26,-32.4
1535.28,-32.45
1535.3,-32.496
1535.32,-32.545
1535.34,-32.593
1535.36,-32.643
1535.38,-32.69
1535.4,-32.741
1535.42,-32.787
1535.44,-32.832
1535.46,-32.881
1535.48,-32.928
1535.5,-32.976
1535.52,-33.023
1535.54,-33.071
1535.56,-33.118
1535.58,-33.163
1535.6,-33.204
1535.62,-33.247
1535.64,-33.291
1535.66,-33.336
1535.68,-33.377
1535.7,-33.42
1535.72,-33.461
1535.74,-33.504
1535.76,-33.543
1535.78,-33.586
1535.8,-33.627
1535.82,-33.671
1535.84,-33.714
1535.86,-33.759
1535.88,-33.801
1535.9,-33.844
1535.92,-33.886
1535.94,-33.929
1535.96,-33.971
1535.98,-34.013
1536,-34.055
1536.02,-34.101
1536.04,-34.143
1536.06,-34.184
1536.08,-34.223
1536.1,-34.263
1536.12,-34.305
1536.14,-34.345
1536.16,-34.388
1536.18,-34.426
1536.2,-34.464
1536.22,-34.5
1536.24,-34.539
1536.26,-34.578
1536.28,-34.614
1536.3,-34.65
1536.32,-34.687
1536.34,-34.726
1536.36,-34.762
1536.38,-34.796
1536.4,-34.831
1536.42,-34.867
1536.44,-34.902
1536.46,-34.937
1536.48,-34.973
1536.5,-35.01
1536.52,-35.041
1536.54,-35.075
1536.56,-35.11
1536.58,-35.143
1536.6,-35.176
1536.62,-35.208
1536.64,-35.244
1536.66,-35.277
1536.68,-35.312
1536.7,-35.343
1536.72,-35.373
1536.74,-35.405
1536.76,-35.436
1536.78,-35.469
1536.8,-35.5
1536.82,-35.533
1536.84,-35.565
1536.86,-35.595
1536.88,-35.627
1536.9,-35.656
1536.92,-35.687
1536.94,-35.721
1536.96,-35.751
1536.98,-35.781
1537,-35.806
1537.02,-35.834
1537.04,-35.861
1537.06,-35.888
1537.08,-35.916
1537.1,-35.945
1537.12,-35.972
1537.14,-36.001
1537.16,-36.03
1537.18,-36.057
1537.2,-36.082
1537.22,-36.109
1537.24,-36.136
1537.26,-36.165
1537.28,-36.189
1537.3,-36.216
1537.32,-36.243
1537.34,-36.268
1537.36,-36.293
1537.38,-36.317
1537.4,-36.343
1537.42,-36.368
1537.44,-36.392
1537.46,-36.415
1537.48,-36.439
1537.5,-36.462
1537.52,-36.487
1537.54,-36.509
1537.56,-36.53
1537.58,-36.552
1537.6,-36.574
1537.62,-36.597
1537.64,-36.619
1537.66,-36.639
1537.68,-36.66
1537.7,-36.683
1537.72,-36.703
1537.74,-36.726
1537.76,-36.745
1537.78,-36.766
1537.8,-36.784
1537.82,-36.805
1537.84,-36.823
1537.86,-36.845
1537.88,-36.863
1537.9,-36.878
1537.92,-36.896
1537.94,-36.912
1537.96,-36.928
1537.98,-36.946
1538,-36.96
1538.02,-36.977
1538.04,-36.992
1538.06,-37.005
1538.08,-37.021
1538.1,-37.034
1538.12,-37.05
1538.14,-37.067
1538.16,-37.081
1538.18,-37.096
1538.2,-37.107
1538.22,-37.121
1538.24,-37.136
1538.26,-37.149
1538.28,-37.161
1538.3,-37.175
1538.32,-37.187
1538.34,-37.2
1538.36,-37.214
1538.38,-37.227
1538.4,-37.239
1538.42,-37.254
1538.44,-37.268
1538.46,-37.279
1538.48,-37.292
1538.5,-37.304
1538.52,-37.316
1538.54,-37.327
1538.56,-37.341
1538.58,-37.352
1538.6,-37.365
1538.62,-37.377
1538.64,-37.391
1538.66,-37.402
1538.68,-37.413
1538.7,-37.425
1538.72,-37.436
1538.74,-37.445
1538.76,-37.454
1538.78,-37.463
1538.8,-37.472
1538.82,-37.482
1538.84,-37.49
1538.86,-37.5
1538.88,-37.507
1538.9,-37.517
1538.92,-37.527
1538.94,-37.535
1538.96,-37.541
1538.98,-37.548
1539,-37.556
1539.02,-37.565
1539.04,-37.572
1539.06,-37.577
1539.08,-37.586
1539.1,-37.592
1539.12,-37.598
1539.14,-37.606
1539.16,-37.614
1539.18,-37.62
1539.2,-37.629
1539.22,-37.635
1539.24,-37.641
1539.26,-37.649
1539.28,-37.653
1539.3,-37.659
1539.32,-37.665
1539.34,-37.673
1539.36,-37.678
1539.38,-37.684
1539.4,-37.688
1539.42,-37.692
1539.44,-37.697
1539.46,-37.702
1539.48,-37.709
1539.5,-37.712
1539.52,-37.716
1539.54,-37.722
1539.56,-37.728
1539.58,-37.732
1539.6,-37.738
1539.62,-37.742
1539.64,-37.746
1539.66,-37.749
1539.68,-37.755
1539.7,-37.758
1539.72,-37.763
1539.74,-37.763
1539.76,-37.766
1539.78,-37.77
1539.8,-37.77
1539.82,-37.773
1539.84,-37.774
1539.86,-37.777
1539.88,-37.779
1539.9,-37.779
1539.92,-37.781
1539.94,-37.783
1539.96,-37.784
1539.98,-37.784
1540,-37.785
1540.02,-37.785
1540.04,-37.785
1540.06,-37.784
1540.08,-37.784
1540.1,-37.784
1540.12,-37.783
1540.14,-37.783
1540.16,-37.783
1540.18,-37.785
1540.2,-37.783
1540.22,-37.783
1540.24,-37.783
1540.26,-37.783
1540.28,-37.784
1540.3,-37.784
1540.32,-37.785
1540.34,-37.785
1540.36,-37.784
1540.38,-37.783
1540.4,-37.782
1540.42,-37.781
1540.44,-37.781
1540.46,-37.783
1540.48,-37.781
1540.5,-37.78
1540.52,-37.779
1540.54,-37.777
1540.56,-37.775
1540.58,-37.777
1540.6,-37.775
1540.62,-37.774
1540.64,-37.771
1540.66,-37.768
1540.68,-37.768
1540.7,-37.766
1540.72,-37.763
1540.74,-37.761
1540.76,-37.757
1540.78,-37.757
1540.8,-37.755
1540.82,-37.753
1540.84,-37.75
1540.86,-37.748
1540.88,-37.747
1540.9,-37.745
1540.92,-37.743
1540.94,-37.74
1540.96,-37.739
1540.98,-37.737
1541,-37.736
1541.02,-37.735
1541.04,-37.731
1541.06,-37.729
1541.08,-37.725
1541.1,-37.721
1541.12,-37.719
1541.14,-37.715
1541.16,-37.713
1541.18,-37.711
1541.2,-37.705
1541.22,-37.702
1541.24,-37.698
1541.26,-37.694
1541.28,-37.69
1541.3,-37.686
1541.32,-37.681
1541.34,-37.678
1541.36,-37.675
1541.38,-37.672
1541.4,-37.67
1541.42,-37.668
1541.44,-37.664
1541.46,-37.659
1541.48,-37.655
1541.5,-37.654
1541.52,-37.651
1541.54,-37.647
1541.56,-37.64
1541.58,-37.637
1541.6,-37.632
1541.62,-37.627
1541.64,-37.623
1541.66,-37.618
1541.68,-37.614
1541.7,-37.609
1541.72,-37.605
1541.74,-37.599
1541.76,-37.592
1541.78,-37.59
1541.8,-37.584
1541.82,-37.579
1541.84,-37.574
1541.86,-37.569
1541.88,-37.565
1541.9,-37.559
1541.92,-37.556
1541.94,-37.55
1541.96,-37.547
1541.98,-37.543
1542,-37.539
1542.02,-37.534
1542.04,-37.527
1542.06,-37.52
1542.08,-37.516
1542.1,-37.513
1542.12,-37.507
1542.14,-37.505
1542.16,-37.502
1542.18,-37.497
1542.2,-37.494
1542.22,-37.49
1542.24,-37.485
1542.26,-37.479
1542.28,-37.476
1542.3,-37.474
1542.32,-37.469
1542.34,-37.464
1542.36,-37.46
1542.38,-37.456
1542.4,-37.456
1542.42,-37.449
1542.44,-37.444
1542.46,-37.442
1542.48,-37.437
1542.5,-37.433
1542.52,-37.428
1542.54,-37.423
1542.56,-37.42
1542.58,-37.414
1542.6,-37.41
1542.62,-37.404
1542.64,-37.401
1542.66,-37.397
1542.68,-37.393
1542.7,-37.39
1542.72,-37.385
1542.74,-37.382
1542.76,-37.377
1542.78,-37.371
1542.8,-37.368
1542.82,-37.364
1542.84,-37.359
1542.86,-37.353
1542.88,-37.349
1542.9,-37.344
1542.92,-37.341
1542.94,-37.337
1542.96,-37.331
1542.98,-37.328
1543,-37.326
1543.02,-37.322
1543.04,-37.317
1543.06,-37.315
1543.08,-37.311
1543.1,-37.306
1543.12,-37.304
1543.14,-37.299
1543.16,-37.294
1543.18,-37.293
1543.2,-37.29
1543.22,-37.288
1543.24,-37.285
1543.26,-37.281
1543.28,-37.277
1543.3,-37.273
1543.32,-37.272
1543.34,-37.268
1543.36,-37.265
1543.38,-37.262
1543.4,-37.259
1543.42,-37.256
1543.44,-37.252
1543.46,-37.248
1543.48,-37.246
1543.5,-37.243
1543.52,-37.239
1543.54,-37.237
1543.56,-37.231
1543.58,-37.228
1543.6,-37.224
1543.62,-37.218
1543.64,-37.214
1543.66,-37.211
1543.68,-37.207
1543.7,-37.204
1543.72,-37.201
1543.74,-37.198
1543.76,-37.193
1543.78,-37.188
1543.8,-37.185
1543.82,-37.181
1543.84,-37.177
1543.86,-37.17
1543.88,-37.166
1543.9,-37.161
1543.92,-37.16
1543.94,-37.158
1543.96,-37.155
1543.98,-37.152
1544,-37.149
1544.02,-37.147
1544.04,-37.145
1544.06,-37.143
1544.08,-37.139
1544.1,-37.139
1544.12,-37.137
1544.14,-37.135
1544.16,-37.134
1544.18,-37.131
1544.2,-37.128
1544.22,-37.13
1544.24,-37.129
1544.26,-37.129
1544.28,-37.126
1544.3,-37.124
1544.32,-37.122
1544.34,-37.12
1544.36,-37.12
1544.38,-37.12
1544.4,-37.121
1544.42,-37.119
1544.44,-37.119
1544.46,-37.117
1544.48,-37.117
1544.5,-37.117
1544.52,-37.115
1544.54,-37.114
1544.56,-37.112
1544.58,-37.111
1544.6,-37.109
1544.62,-37.109
1544.64,-37.108
1544.66,-37.105
1544.68,-37.104
1544.7,-37.102
1544.72,-37.1
1544.74,-37.099
1544.76,-37.097
1544.78,-37.096
1544.8,-37.095
1544.82,-37.091
1544.84,-37.089
1544.86,-37.088
1544.88,-37.084
1544.9,-37.083
1544.92,-37.08
1544.94,-37.077
1544.96,-37.074
1544.98,-37.071
1545,-37.071
1545.02,-37.069
1545.04,-37.067
1545.06,-37.064
1545.08,-37.06
1545.1,-37.057
1545.12,-37.056
1545.14,-37.054
1545.16,-37.053
1545.18,-37.05
1545.2,-37.049
1545.22,-37.047
1545.24,-37.045
1545.26,-37.043
1545.28,-37.04
1545.3,-37.038
1545.32,-37.038
1545.34,-37.036
1545.36,-37.036
1545.38,-37.036
1545.4,-37.033
1545.42,-37.035
1545.44,-37.035
1545.46,-37.035
1545.48,-37.034
1545.5,-37.033
1545.52,-37.034
1545.54,-37.036
1545.56,-37.037
1545.58,-37.037
1545.6,-37.036
1545.62,-37.035
1545.64,-37.038
1545.66,-37.039
1545.68,-37.04
1545.7,-37.043
1545.72,-37.046
1545.74,-37.046
1545.76,-37.049
1545.78,-37.05
1545.8,-37.053
1545.82,-37.055
1545.84,-37.055
1545.86,-37.058
1545.88,-37.061
1545.9,-37.064
1545.92,-37.068
1545.94,-37.072
1545.96,-37.071
1545.98,-37.073
1546,-37.077
1546.02,-37.079
1546.04,-37.081
1546.06,-37.082
1546.08,-37.085
1546.1,-37.087
1546.12,-37.088
1546.14,-37.091
1546.16,-37.093
1546.18,-37.097
1546.2,-37.099
1546.22,-37.103
1546.24,-37.102
1546.26,-37.105
1546.28,-37.105
1546.3,-37.105
1546.32,-37.106
1546.34,-37.108
1546.36,-37.108
1546.38,-37.107
1546.4,-37.107
1546.42,-37.108
1546.44,-37.109
1546.46,-37.112
1546.48,-37.113
1546.5,-37.114
1546.52,-37.116
1546.54,-37.12
1546.56,-37.122
1546.58,-37.123
1546.6,-37.127
1546.62,-37.127
1546.64,-37.13
1546.66,-37.135
1546.68,-37.139
1546.7,-37.14
1546.72,-37.145
1546.74,-37.148
1546.76,-37.151
1546.78,-37.152
1546.8,-37.158
1546.82,-37.161
1546.84,-37.165
1546.86,-37.168
1546.88,-37.17
1546.9,-37.174
1546.92,-37.179
1546.94,-37.182
1546.96,-37.187
1546.98,-37.192
1547,-37.194
1547.02,-37.196
1547.04,-37.199
1547.06,-37.201
1547.08,-37.204
1547.1,-37.207
1547.12,-37.21
1547.14,-37.21
1547.16,-37.213
1547.18,-37.215
1547.2,-37.219
1547.22,-37.22
1547.24,-37.223
1547.26,-37.23
1547.28,-37.231
1547.3,-37.233
1547.32,-37.237
1547.34,-37.24
1547.36,-37.242
1547.38,-37.243
1547.4,-37.245
1547.42,-37.247
1547.44,-37.248
1547.46,-37.25
1547.48,-37.252
1547.5,-37.255
1547.52,-37.258
1547.54,-37.261
1547.56,-37.262
1547.58,-37.266
1547.6,-37.27
1547.62,-37.273
1547.64,-37.275
1547.66,-37.276
1547.68,-37.28
1547.7,-37.283
1547.72,-37.286
1547.74,-37.288
1547.76,-37.293
1547.78,-37.296
1547.8,-37.299
1547.82,-37.302
1547.84,-37.305
1547.86,-37.309
1547.88,-37.312
1547.9,-37.314
1547.92,-37.316
1547.94,-37.32
1547.96,-37.321
1547.98,-37.324
1548,-37.326
1548.02,-37.328
1548.04,-37.328
1548.06,-37.333
1548.08,-37.334
1548.1,-37.337
1548.12,-37.338
1548.14,-37.341
1548.16,-37.343
1548.18,-37.347
1548.2,-37.349
1548.22,-37.35
1548.24,-37.354
1548.26,-37.357
1548.28,-37.36
1548.3,-37.361
1548.32,-37.363
1548.34,-37.364
1548.36,-37.365
1548.38,-37.367
1548.4,-37.368
1548.42,-37.369
1548.44,-37.368
1548.46,-37.366
1548.48,-37.371
1548.5,-37.373
1548.52,-37.374
1548.54,-37.376
1548.56,-37.379
1548.58,-37.382
1548.6,-37.384
1548.62,-37.388
1548.64,-37.39
1548.66,-37.392
1548.68,-37.395
1548.7,-37.4
1548.72,-37.402
1548.74,-37.405
1548.76,-37.408
1548.78,-37.413
1548.8,-37.415
1548.82,-37.42
1548.84,-37.426
1548.86,-37.43
1548.88,-37.437
1548.9,-37.441
1548.92,-37.444
1548.94,-37.447
1548.96,-37.453
1548.98,-37.457
1549,-37.463
1549.02,-37.469
1549.04,-37.47
1549.06,-37.475
1549.08,-37.478
1549.1,-37.483
1549.12,-37.487
1549.14,-37.491
1549.16,-37.494
1549.18,-37.498
1549.2,-37.503
1549.22,-37.504
1549.24,-37.508
1549.26,-37.513
1549.28,-37.515
1549.3,-37.52
1549.32,-37.522
1549.34,-37.525
1549.36,-37.529
1549.38,-37.531
1549.4,-37.534
1549.42,-37.535
1549.44,-37.54
1549.46,-37.542
1549.48,-37.546
1549.5,-37.549
1549.52,-37.554
1549.54,-37.557
1549.56,-37.559
1549.58,-37.563
1549.6,-37.564
1549.62,-37.566
1549.64,-37.572
1549.66,-37.574
1549.68,-37.577
1549.7,-37.575
1549.72,-37.578
1549.74,-37.58
1549.76,-37.582
1549.78,-37.583
1549.8,-37.585
1549.82,-37.587
1549.84,-37.586
1549.86,-37.588
1549.88,-37.591
1549.9,-37.59
1549.92,-37.592
1549.94,-37.593
1549.96,-37.596
1549.98,-37.596
1550,-37.597
1550.02,-37.598
1550.04,-37.6
1550.06,-37.599
1550.08,-37.602
1550.1,-37.604
1550.12,-37.605
1550.14,-37.608
1550.16,-37.609
1550.18,-37.613
1550.2,-37.616
1550.22,-37.617
1550.24,-37.62
1550.26,-37.623
1550.28,-37.626
1550.3,-37.628
1550.32,-37.631
1550.34,-37.633
1550.36,-37.634
1550.38,-37.638
1550.4,-37.64
1550.42,-37.643
1550.44,-37.646
1550.46,-37.649
1550.48,-37.651
1550.5,-37.653
1550.52,-37.654
1550.54,-37.659
1550.56,-37.662
1550.58,-37.666
1550.6,-37.668
1550.62,-37.67
1550.64,-37.672
1550.66,-37.673
1550.68,-37.674
1550.7,-37.678
1550.72,-37.68
1550.74,-37.684
1550.76,-37.686
1550.78,-37.689
1550.8,-37.691
1550.82,-37.693
1550.84,-37.696
1550.86,-37.698
1550.88,-37.702
1550.9,-37.703
1550.92,-37.705
1550.94,-37.707
1550.96,-37.708
1550.98,-37.71
1551,-37.715
1551.02,-37.715
1551.04,-37.718
1551.06,-37.72
1551.08,-37.72
1551.1,-37.724
1551.12,-37.726
1551.14,-37.728
1551.16,-37.73
1551.18,-37.734
1551.2,-37.739
1551.22,-37.742
1551.24,-37.746
1551.26,-37.749
1551.28,-37.754
1551.3,-37.758
1551.32,-37.764
1551.34,-37.767
1551.36,-37.77
1551.38,-37.774
1551.4,-37.776
1551.42,-37.779
1551.44,-37.782
1551.46,-37.786
1551.48,-37.787
1551.5,-37.791
1551.52,-37.794
1551.54,-37.796
1551.56,-37.799
1551.58,-37.803
1551.6,-37.807
1551.62,-37.808
1551.64,-37.811
1551.66,-37.813
1551.68,-37.817
1551.7,-37.818
1551.72,-37.82
1551.74,-37.823
1551.76,-37.824
1551.78,-37.828
1551.8,-37.828
1551.82,-37.829
1551.84,-37.831
1551.86,-37.833
1551.88,-37.834
1551.9,-37.838
1551.92,-37.839
1551.94,-37.839
1551.96,-37.84
1551.98,-37.843
1552,-37.845
1552.02,-37.846
1552.04,-37.848
1552.06,-37.849
1552.08,-37.852
1552.1,-37.853
1552.12,-37.855
1552.14,-37.858
1552.16,-37.86
1552.18,-37.862
1552.2,-37.863
1552.22,-37.866
1552.24,-37.866
1552.26,-37.869
1552.28,-37.871
1552.3,-37.873
1552.32,-37.875
1552.34,-37.878
1552.36,-37.881
1552.38,-37.882
1552.4,-37.886
1552.42,-37.889
1552.44,-37.888
1552.46,-37.891
1552.48,-37.892
1552.5,-37.895
1552.52,-37.895
1552.54,-37.898
1552.56,-37.9
1552.58,-37.903
1552.6,-37.902
1552.62,-37.904
1552.64,-37.905
1552.66,-37.907
1552.68,-37.91
1552.7,-37.91
1552.72,-37.912
1552.74,-37.914
1552.76,-37.916
1552.78,-37.918
1552.8,-37.917
1552.82,-37.917
1552.84,-37.914
1552.86,-37.915
1552.88,-37.916
1552.9,-37.917
1552.92,-37.916
1552.94,-37.916
1552.96,-37.917
1552.98,-37.918
1553,-37.919
1553.02,-37.92
1553.04,-37.92
1553.06,-37.922
1553.08,-37.923
1553.1,-37.923
1553.12,-37.924
1553.14,-37.923
1553.16,-37.923
1553.18,-37.925
1553.2,-37.925
1553.22,-37.924
1553.24,-37.925
1553.26,-37.926
1553.28,-37.926
1553.3,-37.926
1553.32,-37.928
1553.34,-37.926
1553.36,-37.927
1553.38,-37.929
1553.4,-37.929
1553.42,-37.927
1553.44,-37.928
1553.46,-37.931
1553.48,-37.928
1553.5,-37.929
1553.52,-37.93
1553.54,-37.931
1553.56,-37.931
1553.58,-37.933
1553.6,-37.932
1553.62,-37.934
1553.64,-37.934
1553.66,-37.935
1553.68,-37.936
1553.7,-37.938
1553.72,-37.937
1553.74,-37.937
1553.76,-37.938
1553.78,-37.941
1553.8,-37.94
1553.82,-37.941
1553.84,-37.942
1553.86,-37.944
1553.88,-37.948
1553.9,-37.949
1553.92,-37.948
1553.94,-37.95
1553.96,-37.952
1553.98,-37.952
1554,-37.955
1554.02,-37.956
1554.04,-37.956
1554.06,-37.959
1554.08,-37.96
1554.1,-37.961
1554.12,-37.964
1554.14,-37.967
1554.16,-37.968
1554.18,-37.968
1554.2,-37.971
1554.22,-37.971
1554.24,-37.973
1554.26,-37.973
1554.28,-37.976
1554.3,-37.975
1554.32,-37.976
1554.34,-37.979
1554.36,-37.979
1554.38,-37.98
1554.4,-37.978
1554.42,-37.981
1554.44,-37.981
1554.46,-37.982
1554.48,-37.982
1554.5,-37.984
1554.52,-37.986
1554.54,-37.985
1554.56,-37.987
1554.58,-37.988
1554.6,-37.988
1554.62,-37.985
1554.64,-37.988
1554.66,-37.988
1554.68,-37.988
1554.7,-37.989
1554.72,-37.99
1554.74,-37.991
1554.76,-37.995
1554.78,-37.998
1554.8,-37.998
1554.82,-37.999
1554.84,-38.001
1554.86,-38.001
1554.88,-38.003
1554.9,-38.007
1554.92,-38.008
1554.94,-38.011
1554.96,-38.013
1554.98,-38.015
1555,-38.016
1555.02,-38.018
1555.04,-38.019
1555.06,-38.019
1555.08,-38.022
1555.1,-38.022
1555.12,-38.023
1555.14,-38.027
1555.16,-38.027
1555.18,-38.03
1555.2,-38.03
1555.22,-38.032
1555.24,-38.034
1555.26,-38.034
1555.28,-38.035
1555.3,-38.035
1555.32,-38.036
1555.34,-38.034
1555.36,-38.035
1555.38,-38.035
1555.4,-38.036
1555.42,-38.038
1555.44,-38.037
1555.46,-38.037
1555.48,-38.04
1555.5,-38.04
1555.52,-38.039
1555.54,-38.042
1555.56,-38.042
1555.58,-38.043
1555.6,-38.047
1555.62,-38.047
1555.64,-38.049
1555.66,-38.052
1555.68,-38.053
1555.7,-38.056
1555.72,-38.059
1555.74,-38.058
1555.76,-38.062
1555.78,-38.065
1555.8,-38.066
1555.82,-38.068
1555.84,-38.069
1555.86,-38.069
1555.88,-38.073
1555.9,-38.073
1555.92,-38.073
1555.94,-38.078
1555.96,-38.08
1555.98,-38.08
1556,-38.081
1556.02,-38.084
1556.04,-38.085
1556.06,-38.089
1556.08,-38.092
1556.1,-38.093
1556.12,-38.094
1556.14,-38.097
1556.16,-38.099
1556.18,-38.102
1556.2,-38.101
1556.22,-38.104
1556.24,-38.107
1556.26,-38.109
1556.28,-38.111
1556.3,-38.111
1556.32,-38.114
1556.34,-38.116
1556.36,-38.116
1556.38,-38.116
1556.4,-38.119
1556.42,-38.118
1556.44,-38.12
1556.46,-38.122
1556.48,-38.123
1556.5,-38.122
1556.52,-38.126
1556.54,-38.129
1556.56,-38.13
1556.58,-38.13
1556.6,-38.132
1556.62,-38.133
1556.64,-38.136
1556.66,-38.138
1556.68,-38.141
1556.7,-38.141
1556.72,-38.144
1556.74,-38.146
1556.76,-38.149
1556.78,-38.15
1556.8,-38.152
1556.82,-38.154
1556.84,-38.156
1556.86,-38.158
1556.88,-38.161
1556.9,-38.163
1556.92,-38.165
1556.94,-38.17
1556.96,-38.173
1556.98,-38.175
1557,-38.177
1557.02,-38.18
1557.04,-38.184
1557.06,-38.186
1557.08,-38.189
1557.1,-38.191
1557.12,-38.194
1557.14,-38.198
1557.16,-38.201
1557.18,-38.204
1557.2,-38.208
1557.22,-38.212
1557.24,-38.216
1557.26,-38.219
1557.28,-38.224
1557.3,-38.225
1557.32,-38.231
1557.34,-38.235
1557.36,-38.24
1557.38,-38.247
1557.4,-38.251
1557.42,-38.258
1557.44,-38.262
1557.46,-38.267
1557.48,-38.272
1557.5,-38.277
1557.52,-38.284
1557.54,-38.287
1557.56,-38.293
1557.58,-38.296
1557.6,-38.303
1557.62,-38.307
1557.64,-38.311
1557.66,-38.316
1557.68,-38.32
1557.7,-38.324
1557.72,-38.33
1557.74,-38.335
1557.76,-38.34
1557.78,-38.344
1557.8,-38.349
1557.82,-38.354
1557.84,-38.358
1557.86,-38.362
1557.88,-38.364
1557.9,-38.37
1557.92,-38.373
1557.94,-38.378
1557.96,-38.383
1557.98,-38.385
1558,-38.392
1558.02,-38.393
1558.04,-38.398
1558.06,-38.403
1558.08,-38.41
1558.1,-38.415
1558.12,-38.42
1558.14,-38.425
1558.16,-38.432
1558.18,-38.436
1558.2,-38.441
1558.22,-38.447
1558.24,-38.454
1558.26,-38.461
1558.28,-38.464
1558.3,-38.471
1558.32,-38.478
1558.34,-38.484
1558.36,-38.489
1558.38,-38.495
1558.4,-38.503
1558.42,-38.509
1558.44,-38.517
1558.46,-38.525
1558.48,-38.532
1558.5,-38.538
1558.52,-38.547
1558.54,-38.555
1558.56,-38.561
1558.58,-38.569
1558.6,-38.577
1558.62,-38.585
1558.64,-38.592
1558.66,-38.598
1558.68,-38.605
1558.7,-38.614
1558.72,-38.623
1558.74,-38.631
1558.76,-38.639
1558.78,-38.646
1558.8,-38.654
1558.82,-38.663
1558.84,-38.668
1558.86,-38.678
1558.88,-38.685
1558.9,-38.691
1558.92,-38.7
1558.94,-38.707
1558.96,-38.715
1558.98,-38.722
1559,-38.729
1559.02,-38.738
1559.04,-38.744
1559.06,-38.753
1559.08,-38.76
1559.1,-38.768
1559.12,-38.775
1559.14,-38.785
1559.16,-38.793
1559.18,-38.798
1559.2,-38.811
1559.22,-38.818
1559.24,-38.828
1559.26,-38.839
1559.28,-38.847
1559.3,-38.857
1559.32,-38.869
1559.34,-38.877
1559.36,-38.886
1559.38,-38.896
1559.4,-38.904
1559.42,-38.913
1559.44,-38.921
1559.46,-38.929
1559.48,-38.938
1559.5,-38.947
1559.52,-38.957
1559.54,-38.968
1559.56,-38.977
1559.58,-38.988
1559.6,-38.996
1559.62,-39.005
1559.64,-39.014
1559.66,-39.021
1559.68,-39.03
1559.7,-39.039
1559.72,-39.048
1559.74,-39.057
1559.76,-39.067
1559.78,-39.077
1559.8,-39.089
1559.82,-39.099
1559.84,-39.108
1559.86,-39.12
1559.88,-39.129
1559.9,-39.14
1559.92,-39.15
1559.94,-39.159
1559.96,-39.17
1559.98,-39.181
1560,-39.192
1560.02,-39.203
1560.04,-39.211
1560.06,-39.221
1560.08,-39.234
1560.1,-39.243
1560.12,-39.252
1560.14,-39.26
1560.16,-39.269
1560.18,-39.278
1560.2,-39.286
1560.22,-39.298
1560.24,-39.305
1560.26,-39.315
1560.28,-39.328
1560.3,-39.337
1560.32,-39.346
1560.34,-39.357
1560.36,-39.368
1560.38,-39.378
1560.4,-39.388
1560.42,-39.399
1560.44,-39.409
1560.46,-39.42
1560.48,-39.431
1560.5,-39.442
1560.52,-39.455
1560.54,-39.464
1560.56,-39.476
1560.58,-39.488
1560.6,-39.499
1560.62,-39.51
1560.64,-39.522
1560.66,-39.534
1560.68,-39.546
1560.7,-39.558
1560.72,-39.57
1560.74,-39.584
1560.76,-39.598
1560.78,-39.608
1560.8,-39.62
1560.82,-39.633
1560.84,-39.646
1560.86,-39.659
1560.88,-39.672
1560.9,-39.685
1560.92,-39.698
1560.94,-39.711
1560.96,-39.723
1560.98,-39.736
1561,-39.749
1561.02,-39.762
1561.04,-39.775
1561.06,-39.789
1561.08,-39.802
1561.1,-39.817
1561.12,-39.831
1561.14,-39.847
1561.16,-39.86
1561.18,-39.876
1561.2,-39.89
1561.22,-39.903
1561.24,-39.916
1561.26,-39.931
1561.28,-39.943
1561.3,-39.961
1561.32,-39.973
1561.34,-39.987
1561.36,-40
1561.38,-40.014
1561.4,-40.03
1561.42,-40.04
1561.44,-40.055
1561.46,-40.069
1561.48,-40.082
1561.5,-40.095
1561.52,-40.112
1561.54,-40.121
1561.56,-40.135
1561.58,-40.15
1561.6,-40.164
1561.62,-40.177
1561.64,-40.191
1561.66,-40.204
1561.68,-40.219
1561.7,-40.23
1561.72,-40.246
1561.74,-40.261
1561.76,-40.275
1561.78,-40.289
1561.8,-40.305
1561.82,-40.319
1561.84,-40.336
1561.86,-40.349
1561.88,-40.361
1561.9,-40.377
1561.92,-40.392
1561.94,-40.405
1561.96,-40.413
1561.98,-40.43
1562,-40.443
1562.02,-40.458
1562.04,-40.471
1562.06,-40.485
1562.08,-40.499
1562.1,-40.517
1562.12,-40.531
1562.14,-40.546
1562.16,-40.56
1562.18,-40.576
1562.2,-40.592
1562.22,-40.607
1562.24,-40.622
1562.26,-40.64
1562.28,-40.655
1562.3,-40.671
1562.32,-40.687
1562.34,-40.703
1562.36,-40.718
1562.38,-40.734
1562.4,-40.75
1562.42,-40.765
1562.44,-40.78
1562.46,-40.794
1562.48,-40.81
1562.5,-40.825
1562.52,-40.839
1562.54,-40.855
1562.56,-40.872
1562.58,-40.885
1562.6,-40.902
1562.62,-40.918
1562.64,-40.934
1562.66,-40.951
1562.68,-40.967
1562.7,-40.982
1562.72,-41
1562.74,-41.016
1562.76,-41.031
1562.78,-41.047
1562.8,-41.062
1562.82,-41.078
1562.84,-41.095
1562.86,-41.113
1562.88,-41.129
1562.9,-41.146
1562.92,-41.163
1562.94,-41.18
1562.96,-41.197
1562.98,-41.211
1563,-41.231
1563.02,-41.249
1563.04,-41.265
1563.06,-41.281
1563.08,-41.299
1563.1,-41.315
1563.12,-41.333
1563.14,-41.351
1563.16,-41.367
1563.18,-41.382
1563.2,-41.4
1563.22,-41.418
1563.24,-41.434
1563.26,-41.451
1563.28,-41.468
1563.3,-41.485
1563.32,-41.503
1563.34,-41.518
1563.36,-41.536
1563.38,-41.555
1563.4,-41.571
1563.42,-41.588
1563.44,-41.606
1563.46,-41.625
1563.48,-41.641
1563.5,-41.66
1563.52,-41.677
1563.54,-41.692
1563.56,-41.712
1563.58,-41.728
1563.6,-41.747
1563.62,-41.764
1563.64,-41.781
1563.66,-41.8
1563.68,-41.815
1563.7,-41.833
1563.72,-41.853
1563.74,-41.872
1563.76,-41.888
1563.78,-41.908
1563.8,-41.925
1563.82,-41.941
1563.84,-41.958
1563.86,-41.976
1563.88,-41.993
1563.9,-42.009
1563.92,-42.028
1563.94,-42.045
1563.96,-42.063
1563.98,-42.078
1564,-42.096
1564.02,-42.113
1564.04,-42.129
1564.06,-42.145
1564.08,-42.164
1564.1,-42.181
1564.12,-42.197
1564.14,-42.214
1564.16,-42.231
1564.18,-42.249
1564.2,-42.266
1564.22,-42.286
1564.24,-42.304
1564.26,-42.321
1564.28,-42.339
1564.3,-42.359
1564.32,-42.377
1564.34,-42.394
1564.36,-42.414
1564.38,-42.433
1564.4,-42.451
1564.42,-42.469
1564.44,-42.489
1564.46,-42.508
1564.48,-42.528
1564.5,-42.548
1564.52,-42.567
1564.54,-42.585
1564.56,-42.604
1564.58,-42.626
1564.6,-42.643
1564.62,-42.661
1564.64,-42.678
1564.66,-42.697
1564.68,-42.719
1564.7,-42.736
1564.72,-42.757
1564.74,-42.774
1564.76,-42.792
1564.78,-42.812
1564.8,-42.829
1564.82,-42.848
1564.84,-42.868
1564.86,-42.887
1564.88,-42.905
1564.9,-42.924
1564.92,-42.94
1564.94,-42.959
1564.96,-42.98
1564.98,-42.999
1565,-43.016
1565.02,-43.038
1565.04,-43.056
1565.06,-43.072
1565.08,-43.091
1565.1,-43.11
1565.12,-43.128
1565.14,-43.146
1565.16,-43.165
1565.18,-43.184
1565.2,-43.202
1565.22,-43.221
1565.24,-43.24
1565.26,-43.258
1565.28,-43.276
1565.3,-43.294
1565.32,-43.315
1565.34,-43.334
1565.36,-43.35
1565.38,-43.369
1565.4,-43.387
1565.42,-43.408
1565.44,-43.426
1565.46,-43.444
1565.48,-43.464
1565.5,-43.484
1565.52,-43.502
1565.54,-43.521
1565.56,-43.54
1565.58,-43.558
1565.6,-43.58
1565.62,-43.6
1565.64,-43.618
1565.66,-43.638
1565.68,-43.656
1565.7,-43.677
1565.72,-43.695
1565.74,-43.716
1565.76,-43.735
1565.78,-43.754
1565.8,-43.774
1565.82,-43.789
1565.84,-43.808
1565.86,-43.827
1565.88,-43.846
1565.9,-43.866
1565.92,-43.885
1565.94,-43.904
1565.96,-43.926
1565.98,-43.944
1566,-43.964
1566.02,-43.983
1566.04,-44.005
1566.06,-44.023
1566.08,-44.043
1566.1,-44.065
1566.12,-44.083
1566.14,-44.1
1566.16,-44.116
1566.18,-44.137
1566.2,-44.159
1566.22,-44.179
1566.24,-44.199
1566.26,-44.218
1566.28,-44.237
1566.3,-44.258
1566.32,-44.275
1566.34,-44.297
1566.36,-44.314
1566.38,-44.336
1566.4,-44.356
1566.42,-44.375
1566.44,-44.394
1566.46,-44.413
1566.48,-44.431
1566.5,-44.452
1566.52,-44.475
1566.54,-44.491
1566.56,-44.512
1566.58,-44.53
1566.6,-44.55
1566.62,-44.571
1566.64,-44.59
1566.66,-44.607
1566.68,-44.628
1566.7,-44.649
1566.72,-44.668
1566.74,-44.686
1566.76,-44.707
1566.78,-44.727
1566.8,-44.747
1566.82,-44.766
1566.84,-44.787
1566.86,-44.807
1566.88,-44.828
1566.9,-44.846
1566.92,-44.866
1566.94,-44.884
1566.96,-44.902
1566.98,-44.92
1567,-44.942
1567.02,-44.961
1567.04,-44.98
1567.06,-45.001
1567.08,-45.019
1567.1,-45.039
1567.12,-45.058
1567.14,-45.078
1567.16,-45.101
1567.18,-45.118
1567.2,-45.137
1567.22,-45.157
1567.24,-45.175
1567.26,-45.195
1567.28,-45.215
1567.3,-45.236
1567.32,-45.255
1567.34,-45.275
1567.36,-45.292
1567.38,-45.314
1567.4,-45.332
1567.42,-45.353
1567.44,-45.374
1567.46,-45.393
1567.48,-45.413
1567.5,-45.434
1567.52,-45.454
1567.54,-45.475
1567.56,-45.496
1567.58,-45.516
1567.6,-45.536
1567.62,-45.555
1567.64,-45.576
1567.66,-45.594
1567.68,-45.614
1567.7,-45.633
1567.72,-45.652
1567.74,-45.672
1567.76,-45.692
1567.78,-45.712
1567.8,-45.732
1567.82,-45.75
1567.84,-45.77
1567.86,-45.789
1567.88,-45.81
1567.9,-45.83
1567.92,-45.852
1567.94,-45.868
1567.96,-45.89
1567.98,-45.909
1568,-45.932
1568.02,-45.949
1568.04,-45.969
1568.06,-45.989
1568.08,-46.01
1568.1,-46.03
1568.12,-46.051
1568.14,-46.072
1568.16,-46.092
1568.18,-46.111
1568.2,-46.133
1568.22,-46.15
1568.24,-46.172
1568.26,-46.194
1568.28,-46.214
1568.3,-46.236
1568.32,-46.252
1568.34,-46.274
1568.36,-46.295
1568.38,-46.316
1568.4,-46.337
1568.42,-46.355
1568.44,-46.374
1568.46,-46.392
1568.48,-46.411
1568.5,-46.434
1568.52,-46.452
1568.54,-46.472
1568.56,-46.491
1568.58,-46.511
1568.6,-46.53
1568.62,-46.549
1568.64,-46.569
1568.66,-46.59
1568.68,-46.611
1568.7,-46.628
1568.72,-46.647
1568.74,-46.666
1568.76,-46.687
1568.78,-46.706
1568.8,-46.726
1568.82,-46.748
1568.84,-46.765
1568.86,-46.785
1568.88,-46.805
1568.9,-46.822
1568.92,-46.843
1568.94,-46.862
1568.96,-46.882
1568.98,-46.902
1569,-46.921
1569.02,-46.942
1569.04,-46.961
1569.06,-46.982
1569.08,-46.999
1569.1,-47.02
1569.12,-47.043
1569.14,-47.065
1569.16,-47.086
1569.18,-47.101
1569.2,-47.121
1569.22,-47.14
1569.24,-47.161
1569.26,-47.181
1569.28,-47.198
1569.3,-47.218
1569.32,-47.241
1569.34,-47.255
1569.36,-47.273
1569.38,-47.294
1569.4,-47.313
1569.42,-47.332
1569.44,-47.351
1569.46,-47.372
1569.48,-47.391
1569.5,-47.41
1569.52,-47.427
1569.54,-47.446
1569.56,-47.464
1569.58,-47.484
1569.6,-47.503
1569.62,-47.522
1569.64,-47.54
1569.66,-47.56
1569.68,-47.58
1569.7,-47.598
1569.72,-47.617
1569.74,-47.637
1569.76,-47.657
1569.78,-47.675
1569.8,-47.697
1569.82,-47.714
1569.84,-47.733
1569.86,-47.753
1569.88,-47.773
1569.9,-47.793
1569.92,-47.816
1569.94,-47.831
1569.96,-47.852
1569.98,-47.87
1570,-47.887
1570.02,-47.908
1570.04,-47.925
1570.06,-47.945
1570.08,-47.966
1570.1,-47.985
1570.12,-48.003
1570.14,-48.023
1570.16,-48.042
1570.18,-48.057
1570.2,-48.078
1570.22,-48.098
1570.24,-48.116
1570.26,-48.133
1570.28,-48.151
1570.3,-48.176
1570.32,-48.193
1570.34,-48.211
1570.36,-48.23
1570.38,-48.246
1570.4,-48.264
1570.42,-48.285
1570.44,-48.303
1570.46,-48.32
1570.48,-48.341
1570.5,-48.363
1570.52,-48.383
1570.54,-48.403
1570.56,-48.419
1570.58,-48.438
1570.6,-48.459
1570.62,-48.477
1570.64,-48.498
1570.66,-48.518
1570.68,-48.533
1570.7,-48.555
1570.72,-48.575
1570.74,-48.593
1570.76,-48.61
1570.78,-48.633
1570.8,-48.652
1570.82,-48.671
1570.84,-48.687
1570.86,-48.708
1570.88,-48.727
1570.9,-48.741
1570.92,-48.762
1570.94,-48.782
1570.96,-48.802
1570.98,-48.817
1571,-48.836
1571.02,-48.856
1571.04,-48.876
1571.06,-48.889
1571.08,-48.909
1571.1,-48.926
1571.12,-48.946
1571.14,-48.963
1571.16,-48.983
1571.18,-48.998
1571.2,-49.017
1571.22,-49.033
1571.24,-49.052
1571.26,-49.07
1571.28,-49.091
1571.3,-49.108
1571.32,-49.128
1571.34,-49.146
1571.36,-49.164
1571.38,-49.183
1571.4,-49.2
1571.42,-49.219
1571.44,-49.241
1571.46,-49.254
1571.48,-49.271
1571.5,-49.294
1571.52,-49.314
1571.54,-49.33
1571.56,-49.348
1571.58,-49.371
1571.6,-49.389
1571.62,-49.403
1571.64,-49.426
1571.66,-49.44
1571.68,-49.459
1571.7,-49.477
1571.72,-49.496
1571.74,-49.512
1571.76,-49.529
1571.78,-49.547
1571.8,-49.567
1571.82,-49.582
1571.84,-49.6
1571.86,-49.62
1571.88,-49.635
1571.9,-49.657
1571.92,-49.672
1571.94,-49.69
1571.96,-49.704
1571.98,-49.722
1572,-49.739
1572.02,-49.774
1572.04,-49.775
1572.06,-49.795
1572.08,-49.809
1572.1,-49.827
1572.12,-49.844
1572.14,-49.863
1572.16,-49.879
1572.18,-49.898
1572.2,-49.917
1572.22,-49.932
1572.24,-49.948
1572.26,-49.965
1572.28,-49.983
1572.3,-49.997
1572.32,-50.017
1572.34,-50.036
1572.36,-50.051
1572.38,-50.069
1572.4,-50.085
1572.42,-50.102
1572.44,-50.119
1572.46,-50.137
1572.48,-50.154
1572.5,-50.17
1572.52,-50.191
1572.54,-50.203
1572.56,-50.221
1572.58,-50.239
1572.6,-50.255
1572.62,-50.276
1572.64,-50.291
1572.66,-50.305
1572.68,-50.322
1572.7,-50.338
1572.72,-50.354
1572.74,-50.372
1572.76,-50.389
1572.78,-50.403
1572.8,-50.423
1572.82,-50.438
1572.84,-50.458
1572.86,-50.472
1572.88,-50.489
1572.9,-50.506
1572.92,-50.528
1572.94,-50.54
1572.96,-50.556
1572.98,-50.573
1573,-50.589
1573.02,-50.605
1573.04,-50.623
1573.06,-50.639
1573.08,-50.652
1573.1,-50.672
1573.12,-50.687
1573.14,-50.703
1573.16,-50.72
1573.18,-50.736
1573.2,-50.754
1573.22,-50.771
1573.24,-50.784
1573.26,-50.802
1573.28,-50.817
1573.3,-50.834
1573.32,-50.851
1573.34,-50.866
1573.36,-50.885
1573.38,-50.898
1573.4,-50.915
1573.42,-50.93
1573.44,-50.946
1573.46,-50.964
1573.48,-50.979
1573.5,-50.994
1573.52,-51.01
1573.54,-51.025
1573.56,-51.039
1573.58,-51.056
1573.6,-51.071
1573.62,-51.088
1573.64,-51.102
1573.66,-51.123
1573.68,-51.136
1573.7,-51.151
1573.72,-51.165
1573.74,-51.181
1573.76,-51.194
1573.78,-51.212
1573.8,-51.229
1573.82,-51.242
1573.84,-51.259
1573.86,-51.276
1573.88,-51.288
1573.9,-51.302
1573.92,-51.32
1573.94,-51.334
1573.96,-51.351
1573.98,-51.365
1574,-51.381
1574.02,-51.394
1574.04,-51.409
1574.06,-51.424
1574.08,-51.441
1574.1,-51.456
1574.12,-51.472
1574.14,-51.488
1574.16,-51.504
1574.18,-51.517
1574.2,-51.531
1574.22,-51.547
1574.24,-51.555
1574.26,-51.571
1574.28,-51.59
1574.3,-51.606
1574.32,-51.624
1574.34,-51.636
1574.36,-51.65
1574.38,-51.666
1574.4,-51.681
1574.42,-51.695
1574.44,-51.711
1574.46,-51.725
1574.48,-51.743
1574.5,-51.756
1574.52,-51.771
1574.54,-51.782
1574.56,-51.799
1574.58,-51.813
1574.6,-51.83
1574.62,-51.842
1574.64,-51.858
1574.66,-51.87
1574.68,-51.887
1574.7,-51.904
1574.72,-51.918
1574.74,-51.93
1574.76,-51.946
1574.78,-51.961
1574.8,-51.97
1574.82,-51.986
1574.84,-52
1574.86,-52.02
1574.88,-52.031
1574.9,-52.046
1574.92,-52.061
1574.94,-52.075
1574.96,-52.087
1574.98,-52.097
1575,-52.111
1575.02,-52.126
1575.04,-52.141
1575.06,-52.155
1575.08,-52.173
1575.1,-52.18
1575.12,-52.202
1575.14,-52.214
1575.16,-52.232
1575.18,-52.239
1575.2,-52.253
1575.22,-52.273
1575.24,-52.283
1575.26,-52.298
1575.28,-52.312
1575.3,-52.323
1575.32,-52.338
1575.34,-52.348
1575.36,-52.363
1575.38,-52.381
1575.4,-52.39
1575.42,-52.405
1575.44,-52.419
1575.46,-52.432
1575.48,-52.44
1575.5,-52.46
1575.52,-52.471
1575.54,-52.484
1575.56,-52.496
1575.58,-52.509
1575.6,-52.526
1575.62,-52.535
1575.64,-52.548
1575.66,-52.563
1575.68,-52.582
1575.7,-52.591
1575.72,-52.599
1575.74,-52.615
1575.76,-52.63
1575.78,-52.644
1575.8,-52.656
1575.82,-52.671
1575.84,-52.685
1575.86,-52.692
1575.88,-52.707
1575.9,-52.72
1575.92,-52.734
1575.94,-52.752
1575.96,-52.763
1575.98,-52.775
1576,-52.79
1576.02,-52.807
1576.04,-52.812
1576.06,-52.831
1576.08,-52.839
1576.1,-52.855
1576.12,-52.866
1576.14,-52.88
1576.16,-52.886
1576.18,-52.904
1576.2,-52.916
1576.22,-52.927
1576.24,-52.944
1576.26,-52.956
1576.28,-52.969
1576.3,-52.981
1576.32,-52.986
1576.34,-52.998
1576.36,-53.018
1576.38,-53.033
1576.4,-53.042
1576.42,-53.051
1576.44,-53.063
1576.46,-53.073
1576.48,-53.089
1576.5,-53.102
1576.52,-53.111
1576.54,-53.124
1576.56,-53.141
1576.58,-53.148
1576.6,-53.163
1576.62,-53.172
1576.64,-53.183
1576.66,-53.194
1576.68,-53.209
1576.7,-53.221
1576.72,-53.23
1576.74,-53.244
1576.76,-53.262
1576.78,-53.27
1576.8,-53.284
1576.82,-53.295
1576.84,-53.308
1576.86,-53.318
1576.88,-53.326
1576.9,-53.34
1576.92,-53.354
1576.94,-53.365
1576.96,-53.379
1576.98,-53.387
1577,-53.4
1577.02,-53.407
1577.04,-53.424
1577.06,-53.433
1577.08,-53.442
1577.1,-53.456
1577.12,-53.472
1577.14,-53.486
1577.16,-53.489
1577.18,-53.5
1577.2,-53.517
1577.22,-53.526
1577.24,-53.537
1577.26,-53.546
1577.28,-53.559
1577.3,-53.575
1577.32,-53.581
1577.34,-53.603
1577.36,-53.609
1577.38,-53.62
1577.4,-53.632
1577.42,-53.635
1577.44,-53.655
1577.46,-53.665
1577.48,-53.675
1577.5,-53.686
1577.52,-53.694
1577.54,-53.711
1577.56,-53.722
1577.58,-53.737
1577.6,-53.749
1577.62,-53.761
1577.64,-53.771
1577.66,-53.782
1577.68,-53.792
1577.7,-53.799
1577.72,-53.811
1577.74,-53.823
1577.76,-53.83
1577.78,-53.851
1577.8,-53.856
1577.82,-53.862
1577.84,-53.877
1577.86,-53.886
1577.88,-53.894
1577.9,-53.906
1577.92,-53.917
1577.94,-53.928
1577.96,-53.939
1577.98,-53.95
1578,-53.954
1578.02,-53.976
1578.04,-53.981
1578.06,-53.995
1578.08,-54.005
1578.1,-54.014
1578.12,-54.029
1578.14,-54.042
1578.16,-54.051
1578.18,-54.061
1578.2,-54.073
1578.22,-54.081
1578.24,-54.087
1578.26,-54.097
1578.28,-54.112
1578.3,-54.122
1578.32,-54.129
1578.34,-54.139
1578.36,-54.152
1578.38,-54.161
1578.4,-54.175
1578.42,-54.185
1578.44,-54.197
1578.46,-54.208
1578.48,-54.211
1578.5,-54.222
1578.52,-54.234
1578.54,-54.239
1578.56,-54.257
1578.58,-54.263
1578.6,-54.279
1578.62,-54.285
1578.64,-54.298
1578.66,-54.31
1578.68,-54.317
1578.7,-54.322
1578.72,-54.336
1578.74,-54.346
1578.76,-54.357
1578.78,-54.364
1578.8,-54.383
1578.82,-54.385
1578.84,-54.394
1578.86,-54.409
1578.88,-54.422
1578.9,-54.427
1578.92,-54.436
1578.94,-54.445
1578.96,-54.46
1578.98,-54.466
1579,-54.477
1579.02,-54.486
1579.04,-54.495
1579.06,-54.503
1579.08,-54.522
1579.1,-54.526
1579.12,-54.534
1579.14,-54.542
1579.16,-54.55
1579.18,-54.563
1579.2,-54.571
1579.22,-54.581
1579.24,-54.59
1579.26,-54.599
1579.28,-54.611
1579.3,-54.623
1579.32,-54.633
1579.34,-54.645
1579.36,-54.648
1579.38,-54.664
1579.4,-54.67
1579.42,-54.682
1579.44,-54.688
1579.46,-54.698
1579.48,-54.701
1579.5,-54.715
1579.52,-54.725
1579.54,-54.734
1579.56,-54.745
1579.58,-54.751
1579.6,-54.758
1579.62,-54.767
1579.64,-54.782
1579.66,-54.789
1579.68,-54.801
1579.7,-54.809
1579.72,-54.822
1579.74,-54.829
1579.76,-54.83
1579.78,-54.845
1579.8,-54.858
1579.82,-54.862
1579.84,-54.875
1579.86,-54.885
1579.88,-54.887
1579.9,-54.9
1579.92,-54.913
1579.94,-54.915
1579.96,-54.932
1579.98,-54.935
1580,-54.945
1580.02,-54.952
1580.04,-54.965
1580.06,-54.968
1580.08,-54.98
1580.1,-54.983
1580.12,-55
1580.14,-55.007
1580.16,-55.008
1580.18,-55.021
1580.2,-55.032
1580.22,-55.037
1580.24,-55.051
1580.26,-55.052
1580.28,-55.069
1580.3,-55.076
1580.32,-55.082
1580.34,-55.084
1580.36,-55.098
1580.38,-55.096
1580.4,-55.114
1580.42,-55.127
1580.44,-55.132
1580.46,-55.142
1580.48,-55.146
1580.5,-55.158
1580.52,-55.161
1580.54,-55.172
1580.56,-55.182
1580.58,-55.189
1580.6,-55.199
1580.62,-55.211
1580.64,-55.212
1580.66,-55.225
1580.68,-55.225
1580.7,-55.24
1580.72,-55.24
1580.74,-55.257
1580.76,-55.263
1580.78,-55.271
1580.8,-55.282
1580.82,-55.284
1580.84,-55.297
1580.86,-55.297
1580.88,-55.311
1580.9,-55.331
1580.92,-55.332
1580.94,-55.34
1580.96,-55.341
1580.98,-55.348
1581,-55.364
1581.02,-55.374
1581.04,-55.371
1581.06,-55.387
1581.08,-55.396
1581.1,-55.401
1581.12,-55.406
1581.14,-55.415
1581.16,-55.422
1581.18,-55.434
1581.2,-55.445
1581.22,-55.447
1581.24,-55.452
1581.26,-55.463
1581.28,-55.463
1581.3,-55.474
1581.32,-55.495
1581.34,-55.488
1581.36,-55.498
1581.38,-55.507
1581.4,-55.514
1581.42,-55.519
1581.44,-55.534
1581.46,-55.537
1581.48,-55.547
1581.5,-55.55
1581.52,-55.562
1581.54,-55.569
1581.56,-55.58
1581.58,-55.583
1581.6,-55.591
1581.62,-55.601
1581.64,-55.619
1581.66,-55.616
1581.68,-55.627
1581.7,-55.627
1581.72,-55.641
1581.74,-55.638
1581.76,-55.66
1581.78,-55.665
1581.8,-55.669
1581.82,-55.676
1581.84,-55.68
1581.86,-55.69
1581.88,-55.699
1581.9,-55.705
1581.92,-55.709
1581.94,-55.718
1581.96,-55.727
1581.98,-55.736
1582,-55.74
1582.02,-55.755
1582.04,-55.759
1582.06,-55.759
1582.08,-55.77
1582.1,-55.785
1582.12,-55.789
1582.14,-55.794
1582.16,-55.801
1582.18,-55.806
1582.2,-55.814
1582.22,-55.824
1582.24,-55.838
1582.26,-55.833
1582.28,-55.843
1582.3,-55.853
1582.32,-55.854
1582.34,-55.865
1582.36,-55.873
1582.38,-55.887
1582.4,-55.882
1582.42,-55.893
1582.44,-55.898
1582.46,-55.908
1582.48,-55.913
1582.5,-55.923
1582.52,-55.92
1582.54,-55.93
1582.56,-55.942
1582.58,-55.953
1582.6,-55.956
1582.62,-55.971
1582.64,-55.97
1582.66,-55.979
1582.68,-55.986
1582.7,-55.99
1582.72,-56.003
1582.74,-56.016
1582.76,-56.009
1582.78,-56.031
1582.8,-56.023
1582.82,-56.038
1582.84,-56.038
1582.86,-56.057
1582.88,-56.063
1582.9,-56.069
1582.92,-56.071
1582.94,-56.08
1582.96,-56.083
1582.98,-56.09
1583,-56.095
1583.02,-56.101
1583.04,-56.114
1583.06,-56.12
1583.08,-56.119
1583.1,-56.127
1583.12,-56.142
1583.14,-56.145
1583.16,-56.156
1583.18,-56.156
1583.2,-56.164
1583.22,-56.175
1583.24,-56.173
1583.26,-56.19
1583.28,-56.192
1583.3,-56.194
1583.32,-56.198
1583.34,-56.222
1583.36,-56.217
1583.38,-56.222
1583.4,-56.227
1583.42,-56.232
1583.44,-56.248
1583.46,-56.254
1583.48,-56.248
1583.5,-56.265
1583.52,-56.268
1583.54,-56.268
1583.56,-56.285
1583.58,-56.288
1583.6,-56.294
1583.62,-56.304
1583.64,-56.308
1583.66,-56.304
1583.68,-56.323
1583.7,-56.322
1583.72,-56.34
1583.74,-56.324
1583.76,-56.349
1583.78,-56.359
1583.8,-56.355
1583.82,-56.367
1583.84,-56.368
1583.86,-56.374
1583.88,-56.383
1583.9,-56.391
1583.92,-56.387
1583.94,-56.402
1583.96,-56.412
1583.98,-56.413
1584,-56.417
1584.02,-56.431
1584.04,-56.426
1584.06,-56.445
1584.08,-56.44
1584.1,-56.448
1584.12,-56.466
1584.14,-56.457
1584.16,-56.47
1584.18,-56.476
1584.2,-56.479
1584.22,-56.48
1584.24,-56.485
1584.26,-56.507
1584.28,-56.502
1584.3,-56.513
1584.32,-56.515
1584.34,-56.526
1584.36,-56.524
1584.38,-56.523
1584.4,-56.527
1584.42,-56.534
1584.44,-56.547
1584.46,-56.547
1584.48,-56.569
1584.5,-56.565
1584.52,-56.569
1584.54,-56.584
1584.56,-56.581
1584.58,-56.593
1584.6,-56.596
1584.62,-56.593
1584.64,-56.604
1584.66,-56.607
1584.68,-56.622
1584.7,-56.623
1584.72,-56.628
1584.74,-56.64
1584.76,-56.639
1584.78,-56.646
1584.8,-56.656
1584.82,-56.663
1584.84,-56.663
1584.86,-56.667
1584.88,-56.67
1584.9,-56.686
1584.92,-56.689
1584.94,-56.685
1584.96,-56.704
1584.98,-56.703
1585,-56.706
1585.02,-56.715
1585.04,-56.719
1585.06,-56.726
1585.08,-56.729
1585.1,-56.729
1585.12,-56.741
1585.14,-56.748
1585.16,-56.749
1585.18,-56.758
1585.2,-56.757
1585.22,-56.77
1585.24,-56.771
1585.26,-56.777
1585.28,-56.784
1585.3,-56.797
1585.32,-56.799
1585.34,-56.796
1585.36,-56.807
1585.38,-56.817
1585.4,-56.819
1585.42,-56.825
1585.44,-56.844
1585.46,-56.834
1585.48,-56.848
1585.5,-56.842
1585.52,-56.859
1585.54,-56.851
1585.56,-56.872
1585.58,-56.863
1585.6,-56.877
1585.62,-56.88
1585.64,-56.891
1585.66,-56.886
1585.68,-56.901
1585.7,-56.913
1585.72,-56.909
1585.74,-56.897
1585.76,-56.915
1585.78,-56.921
1585.8,-56.933
1585.82,-56.936
1585.84,-56.947
1585.86,-56.949
1585.88,-56.949
1585.9,-56.946
1585.92,-56.963
1585.94,-56.97
1585.96,-56.967
1585.98,-56.977
1586,-56.976
1586.02,-56.987
1586.04,-56.973
1586.06,-57.006
1586.08,-57.006
1586.1,-57.01
1586.12,-57.008
1586.14,-57.017
1586.16,-57.032
1586.18,-57.026
1586.2,-57.023
1586.22,-57.044
1586.24,-57.033
1586.26,-57.047
1586.28,-57.055
1586.3,-57.053
1586.32,-57.063
1586.34,-57.071
1586.36,-57.067
1586.38,-57.084
1586.4,-57.082
1586.42,-57.094
1586.44,-57.092
1586.46,-57.099
1586.48,-57.113
1586.5,-57.114
1586.52,-57.112
1586.54,-57.122
1586.56,-57.131
1586.58,-57.129
1586.6,-57.129
1586.62,-57.139
1586.64,-57.154
1586.66,-57.145
1586.68,-57.155
1586.7,-57.16
1586.72,-57.171
1586.74,-57.183
1586.76,-57.174
1586.78,-57.182
1586.8,-57.18
1586.82,-57.195
1586.84,-57.2
1586.86,-57.205
1586.88,-57.209
1586.9,-57.21
1586.92,-57.219
1586.94,-57.224
1586.96,-57.236
1586.98,-57.236
1587,-57.238
1587.02,-57.245
1587.04,-57.236
1587.06,-57.257
1587.08,-57.254
1587.1,-57.265
1587.12,-57.272
1587.14,-57.273
1587.16,-57.278
1587.18,-57.276
1587.2,-57.286
1587.22,-57.296
1587.24,-57.285
1587.26,-57.31
1587.28,-57.311
1587.3,-57.317
1587.32,-57.32
1587.34,-57.319
1587.36,-57.335
1587.38,-57.324
1587.4,-57.335
1587.42,-57.351
1587.44,-57.34
1587.46,-57.359
1587.48,-57.356
1587.5,-57.371
1587.52,-57.374
1587.54,-57.372
1587.56,-57.39
1587.58,-57.377
1587.6,-57.381
1587.62,-57.403
1587.64,-57.404
1587.66,-57.394
1587.68,-57.398
1587.7,-57.417
1587.72,-57.418
1587.74,-57.426
1587.76,-57.428
1587.78,-57.428
1587.8,-57.448
1587.82,-57.431
1587.84,-57.44
1587.86,-57.461
1587.88,-57.462
1587.9,-57.467
1587.92,-57.47
1587.94,-57.479
1587.96,-57.47
1587.98,-57.476
1588,-57.497
1588.02,-57.487
1588.04,-57.485
1588.06,-57.493
1588.08,-57.509
1588.1,-57.505
1588.12,-57.507
1588.14,-57.523
1588.16,-57.524
1588.18,-57.522
1588.2,-57.532
1588.22,-57.543
1588.24,-57.547
1588.26,-57.541
1588.28,-57.557
1588.3,-57.552
1588.32,-57.567
1588.34,-57.555
1588.36,-57.567
1588.38,-57.566
1588.4,-57.576
1588.42,-57.58
1588.44,-57.587
1588.46,-57.588
1588.48,-57.593
1588.5,-57.598
1588.52,-57.608
1588.54,-57.607
1588.56,-57.623
1588.58,-57.627
1588.6,-57.622
1588.62,-57.638
1588.64,-57.629
1588.66,-57.632
1588.68,-57.637
1588.7,-57.646
1588.72,-57.649
1588.74,-57.656
1588.76,-57.661
1588.78,-57.669
1588.8,-57.678
1588.82,-57.668
1588.84,-57.678
1588.86,-57.686
1588.88,-57.687
1588.9,-57.696
1588.92,-57.706
1588.94,-57.704
1588.96,-57.707
1588.98,-57.706
1589,-57.704
1589.02,-57.721
1589.04,-57.719
1589.06,-57.745
1589.08,-57.733
1589.1,-57.738
1589.12,-57.747
1589.14,-57.74
1589.16,-57.764
1589.18,-57.76
1589.2,-57.749
1589.22,-57.772
1589.24,-57.767
1589.26,-57.776
1589.28,-57.777
1589.3,-57.768
1589.32,-57.792
1589.34,-57.805
1589.36,-57.8
1589.38,-57.794
1589.4,-57.798
1589.42,-57.8
1589.44,-57.811
1589.46,-57.819
1589.48,-57.835
1589.5,-57.839
1589.52,-57.83
1589.54,-57.831
1589.56,-57.841
1589.58,-57.861
1589.6,-57.843
1589.62,-57.852
1589.64,-57.872
1589.66,-57.861
1589.68,-57.876
1589.7,-57.87
1589.72,-57.877
1589.74,-57.884
1589.76,-57.884
1589.78,-57.876
1589.8,-57.901
1589.82,-57.899
1589.84,-57.91
1589.86,-57.909
1589.88,-57.904
1589.9,-57.92
1589.92,-57.925
1589.94,-57.931
1589.96,-57.926
1589.98,-57.924
1590,-57.932
1590.02,-57.935
1590.04,-57.944
1590.06,-57.946
1590.08,-57.967
1590.1,-57.954
1590.12,-57.962
1590.14,-57.961
1590.16,-57.971
1590.18,-57.988
1590.2,-57.97
1590.22,-57.992
1590.24,-57.978
1590.26,-58.006
1590.28,-57.996
1590.3,-58.012
1590.32,-58.015
1590.34,-58.02
1590.36,-58.013
1590.38,-58.028
1590.4,-58.025
1590.42,-58.031
1590.44,-58.043
1590.46,-58.037
1590.48,-58.046
1590.5,-58.052
1590.52,-58.041
1590.54,-58.061
1590.56,-58.075
1590.58,-58.054
1590.6,-58.079
1590.62,-58.059
1590.64,-58.084
1590.66,-58.075
1590.68,-58.096
1590.7,-58.09
1590.72,-58.1
1590.74,-58.096
1590.76,-58.105
1590.78,-58.104
1590.8,-58.121
1590.82,-58.121
1590.84,-58.124
1590.86,-58.127
1590.88,-58.119
1590.9,-58.129
1590.92,-58.146
1590.94,-58.147
1590.96,-58.146
1590.98,-58.148
1591,-58.159
1591.02,-58.157
1591.04,-58.162
1591.06,-58.188
1591.08,-58.181
1591.1,-58.186
1591.12,-58.2
1591.14,-58.198
1591.16,-58.196
1591.18,-58.196
1591.2,-58.202
1591.22,-58.198
1591.24,-58.212
1591.26,-58.215
1591.28,-58.233
1591.3,-58.214
1591.32,-58.242
1591.34,-58.226
1591.36,-58.25
1591.38,-58.248
1591.4,-58.25
1591.42,-58.256
1591.44,-58.26
1591.46,-58.265
1591.48,-58.268
1591.5,-58.281
1591.52,-58.278
1591.54,-58.295
1591.56,-58.297
1591.58,-58.28
1591.6,-58.307
1591.62,-58.3
1591.64,-58.305
1591.66,-58.323
1591.68,-58.315
1591.7,-58.317
1591.72,-58.322
1591.74,-58.316
1591.76,-58.344
1591.78,-58.337
1591.8,-58.337
1591.82,-58.332
1591.84,-58.364
1591.86,-58.36
1591.88,-58.364
1591.9,-58.355
1591.92,-58.367
1591.94,-58.384
1591.96,-58.373
1591.98,-58.385
1592,-58.391
1592.02,-58.393
1592.04,-58.386
1592.06,-58.395
1592.08,-58.4
1592.1,-58.408
1592.12,-58.42
1592.14,-58.415
1592.16,-58.429
1592.18,-58.42
1592.2,-58.441
1592.22,-58.436
1592.24,-58.431
1592.26,-58.452
1592.28,-58.456
1592.3,-58.456
1592.32,-58.452
1592.34,-58.461
1592.36,-58.446
1592.38,-58.465
1592.4,-58.481
1592.42,-58.479
1592.44,-58.475
1592.46,-58.493
1592.48,-58.486
1592.5,-58.493
1592.52,-58.501
1592.54,-58.501
1592.56,-58.502
1592.58,-58.506
1592.6,-58.512
1592.62,-58.51
1592.64,-58.515
1592.66,-58.528
1592.68,-58.536
1592.7,-58.537
1592.72,-58.541
1592.74,-58.526
1592.76,-58.543
1592.78,-58.554
1592.8,-58.549
1592.82,-58.553
1592.84,-58.558
1592.86,-58.57
1592.88,-58.57
1592.9,-58.581
1592.92,-58.581
1592.94,-58.584
1592.96,-58.573
1592.98,-58.585
1593,-58.595
1593.02,-58.59
1593.04,-58.599
1593.06,-58.607
1593.08,-58.609
1593.1,-58.622
1593.12,-58.618
1593.14,-58.635
1593.16,-58.601
1593.18,-58.632
1593.2,-58.635
1593.22,-58.636
1593.24,-58.636
1593.26,-58.632
1593.28,-58.647
1593.3,-58.661
1593.32,-58.657
1593.34,-58.642
1593.36,-58.675
1593.38,-58.679
1593.4,-58.657
1593.42,-58.676
1593.44,-58.674
1593.46,-58.681
1593.48,-58.69
1593.5,-58.694
1593.52,-58.684
1593.54,-58.708
1593.56,-58.713
1593.58,-58.704
1593.6,-58.72
1593.62,-58.716
1593.64,-58.718
1593.66,-58.718
1593.68,-58.742
1593.7,-58.738
1593.72,-58.736
1593.74,-58.737
1593.76,-58.756
1593.78,-58.745
1593.8,-58.762
1593.82,-58.747
1593.84,-58.761
1593.86,-58.786
1593.88,-58.772
1593.9,-58.774
1593.92,-58.774
1593.94,-58.795
1593.96,-58.768
1593.98,-58.793
1594,-58.795
1594.02,-58.789
1594.04,-58.806
1594.06,-58.819
1594.08,-58.807
1594.1,-58.811
1594.12,-58.815
1594.14,-58.833
1594.16,-58.83
1594.18,-58.839
1594.2,-58.831
1594.22,-58.845
1594.24,-58.836
1594.26,-58.861
1594.28,-58.856
1594.3,-58.849
1594.32,-58.871
1594.34,-58.861
1594.36,-58.878
1594.38,-58.861
1594.4,-58.883
1594.42,-58.902
1594.44,-58.889
1594.46,-58.886
1594.48,-58.904
1594.5,-58.897
1594.52,-58.904
1594.54,-58.915
1594.56,-58.924
1594.58,-58.917
1594.6,-58.909
1594.62,-58.926
1594.64,-58.938
1594.66,-58.947
1594.68,-58.935
1594.7,-58.955
1594.72,-58.956
1594.74,-58.947
1594.76,-58.967
1594.78,-58.958
1594.8,-58.971
1594.82,-58.971
1594.84,-58.984
1594.86,-58.962
1594.88,-59.002
1594.9,-58.997
1594.92,-58.991
1594.94,-58.993
1594.96,-59.001
1594.98,-58.991
1595,-58.998
1595.02,-59
1595.04,-59.017
1595.06,-59.019
1595.08,-59.031
1595.1,-59.035
1595.12,-59.033
1595.14,-59.045
1595.16,-59.04
1595.18,-59.047
1595.2,-59.046
1595.22,-59.044
1595.24,-59.062
1595.26,-59.052
1595.28,-59.069
1595.3,-59.069
1595.32,-59.073
1595.34,-59.079
1595.36,-59.066
1595.38,-59.091
1595.4,-59.084
1595.42,-59.091
1595.44,-59.099
1595.46,-59.108
1595.48,-59.123
1595.5,-59.115
1595.52,-59.109
1595.54,-59.133
1595.56,-59.114
1595.58,-59.143
1595.6,-59.142
1595.62,-59.127
1595.64,-59.15
1595.66,-59.14
1595.68,-59.171
1595.7,-59.139
1595.72,-59.17
1595.74,-59.156
1595.76,-59.18
1595.78,-59.171
1595.8,-59.19
1595.82,-59.178
1595.84,-59.189
1595.86,-59.183
1595.88,-59.198
1595.9,-59.18
1595.92,-59.197
1595.94,-59.205
1595.96,-59.218
1595.98,-59.211
1596,-59.222
1596.02,-59.207
1596.04,-59.227
1596.06,-59.239
1596.08,-59.211
1596.1,-59.247
1596.12,-59.243
1596.14,-59.252
1596.16,-59.252
1596.18,-59.264
1596.2,-59.252
1596.22,-59.26
1596.24,-59.264
1596.26,-59.276
1596.28,-59.278
1596.3,-59.281
1596.32,-59.277
1596.34,-59.31
1596.36,-59.287
1596.38,-59.31
1596.4,-59.285
1596.42,-59.301
1596.44,-59.308
1596.46,-59.316
1596.48,-59.32
1596.5,-59.327
1596.52,-59.322
1596.54,-59.338
1596.56,-59.333
1596.58,-59.324
1596.6,-59.355
1596.62,-59.354
1596.64,-59.336
1596.66,-59.354
1596.68,-59.365
1596.7,-59.348
1596.72,-59.358
1596.74,-59.362
1596.76,-59.381
1596.78,-59.373
1596.8,-59.396
1596.82,-59.379
1596.84,-59.382
1596.86,-59.4
1596.88,-59.384
1596.9,-59.384
1596.92,-59.41
1596.94,-59.412
1596.96,-59.418
1596.98,-59.41
1597,-59.403
1597.02,-59.411
1597.04,-59.44
1597.06,-59.444
1597.08,-59.441
1597.1,-59.441
1597.12,-59.43
1597.14,-59.443
1597.16,-59.458
1597.18,-59.463
1597.2,-59.473
1597.22,-59.455
1597.24,-59.473
1597.26,-59.458
1597.28,-59.48
1597.3,-59.479
1597.32,-59.497
1597.34,-59.493
1597.36,-59.478
1597.38,-59.489
1597.4,-59.496
1597.42,-59.514
1597.44,-59.507
1597.46,-59.509
1597.48,-59.514
1597.5,-59.518
1597.52,-59.519
1597.54,-59.535
1597.56,-59.523
1597.58,-59.543
1597.6,-59.545
1597.62,-59.555
1597.64,-59.532
1597.66,-59.546
1597.68,-59.579
1597.7,-59.567
1597.72,-59.566
1597.74,-59.574
1597.76,-59.573
1597.78,-59.575
1597.8,-59.573
1597.82,-59.59
1597.84,-59.579
1597.86,-59.616
1597.88,-59.591
1597.9,-59.605
1597.92,-59.626
1597.94,-59.605
1597.96,-59.629
1597.98,-59.631
1598,-59.618
1598.02,-59.628
1598.04,-59.632
1598.06,-59.625
1598.08,-59.654
1598.1,-59.652
1598.12,-59.655
1598.14,-59.649
1598.16,-59.664
1598.18,-59.666
1598.2,-59.66
1598.22,-59.657
1598.24,-59.677
1598.26,-59.677
1598.28,-59.664
1598.3,-59.692
1598.32,-59.678
1598.34,-59.7
1598.36,-59.698
1598.38,-59.724
1598.4,-59.679
1598.42,-59.707
1598.44,-59.731
1598.46,-59.725
1598.48,-59.721
1598.5,-59.751
1598.52,-59.713
1598.54,-59.743
1598.56,-59.756
1598.58,-59.752
1598.6,-59.738
1598.62,-59.75
1598.64,-59.753
1598.66,-59.795
1598.68,-59.76
1598.7,-59.776
1598.72,-59.766
1598.74,-59.785
1598.76,-59.791
1598.78,-59.78
1598.8,-59.804
1598.82,-59.787
1598.84,-59.817
1598.86,-59.81
1598.88,-59.792
1598.9,-59.811
1598.92,-59.827
1598.94,-59.827
1598.96,-59.83
1598.98,-59.826
1599,-59.825
1599.02,-59.845
1599.04,-59.852
1599.06,-59.861
1599.08,-59.836
1599.1,-59.867
1599.12,-59.844
1599.14,-59.854
1599.16,-59.865
1599.18,-59.882
1599.2,-59.888
1599.22,-59.885
1599.24,-59.881
1599.26,-59.88
1599.28,-59.897
1599.3,-59.911
1599.32,-59.909
1599.34,-59.899
1599.36,-59.906
1599.38,-59.895
1599.4,-59.923
1599.42,-59.916
1599.44,-59.919
1599.46,-59.925
1599.48,-59.916
1599.5,-59.939
1599.52,-59.94
1599.54,-59.962
1599.56,-59.931
1599.58,-59.954
1599.6,-59.964
1599.62,-59.979
1599.64,-59.951
1599.66,-59.963
1599.68,-59.977
1599.7,-59.992
1599.72,-59.997
1599.74,-59.976
1599.76,-60.02
1599.78,-59.988
1599.8,-60.02
1599.82,-60.006
1599.84,-59.996
1599.86,-60.01
1599.88,-60.015
1599.9,-60.013
1599.92,-60.008
1599.94,-60.029
1599.96,-60.046
1599.98,-60.042
1600,-60.032
