"70BCSV 	",
// AQ6370B OPTICAL SPECTRUM ANALYZER //                 ,
25,
CTRWL,1550
SPAN,100
START WL,1500
STOP WL,1600
WLFREQ,0
REFL,-30
LSCL,5
RESLN,0.2
AVG,1
SMPLAUTO,0
SMPL,5001
SMPLINTVL,0.02
HIGH1,
MEAS,
LSUNT,0
NMSKH,OFF
RESCOR,0
RESPARM,9417
FREQPARM,9417
,
,
,
,
,
,
[TRACE DATA],
1500,-58.913
1500.02,-58.915
1500.04,-58.901
1500.06,-58.893
1500.08,-58.902
1500.1,-58.89
1500.12,-58.882
1500.14,-58.881
1500.16,-58.856
1500.18,-58.865
1500.2,-58.867
1500.22,-58.841
1500.24,-58.84
1500.26,-58.823
1500.28,-58.835
1500.3,-58.815
1500.32,-58.818
1500.34,-58.815
1500.36,-58.804
1500.38,-58.809
1500.4,-58.787
1500.42,-58.787
1500.44,-58.774
1500.46,-58.781
1500.48,-58.776
1500.5,-58.781
1500.52,-58.755
1500.54,-58.752
1500.56,-58.746
1500.58,-58.73
1500.6,-58.732
1500.62,-58.738
1500.64,-58.72
1500.66,-58.714
1500.68,-58.716
1500.7,-58.705
1500.72,-58.705
1500.74,-58.693
1500.76,-58.686
1500.78,-58.688
1500.8,-58.67
1500.82,-58.66
1500.84,-58.667
1500.86,-58.674
1500.88,-58.653
1500.9,-58.646
1500.92,-58.626
1500.94,-58.626
1500.96,-58.633
1500.98,-58.614
1501,-58.609
1501.02,-58.609
1501.04,-58.616
1501.06,-58.6
1501.08,-58.599
1501.1,-58.583
1501.12,-58.589
1501.14,-58.585
1501.16,-58.569
1501.18,-58.565
1501.2,-58.555
1501.22,-58.549
1501.24,-58.543
1501.26,-58.539
1501.28,-58.535
1501.3,-58.52
1501.32,-58.537
1501.34,-58.506
1501.36,-58.506
1501.38,-58.503
1501.4,-58.508
1501.42,-58.488
1501.44,-58.494
1501.46,-58.47
1501.48,-58.472
1501.5,-58.465
1501.52,-58.469
1501.54,-58.456
1501.56,-58.457
1501.58,-58.441
1501.6,-58.429
1501.62,-58.443
1501.64,-58.413
1501.66,-58.428
1501.68,-58.413
1501.7,-58.415
1501.72,-58.402
1501.74,-58.39
1501.76,-58.397
1501.78,-58.392
1501.8,-58.393
1501.82,-58.388
1501.84,-58.374
1501.86,-58.361
1501.88,-58.378
1501.9,-58.344
1501.92,-58.353
1501.94,-58.345
1501.96,-58.346
1501.98,-58.318
1502,-58.33
1502.02,-58.308
1502.04,-58.32
1502.06,-58.313
1502.08,-58.294
1502.1,-58.29
1502.12,-58.288
1502.14,-58.268
1502.16,-58.267
1502.18,-58.266
1502.2,-58.259
1502.22,-58.247
1502.24,-58.248
1502.26,-58.234
1502.28,-58.234
1502.3,-58.216
1502.32,-58.221
1502.34,-58.215
1502.36,-58.203
1502.38,-58.202
1502.4,-58.185
1502.42,-58.196
1502.44,-58.184
1502.46,-58.172
1502.48,-58.159
1502.5,-58.162
1502.52,-58.16
1502.54,-58.157
1502.56,-58.138
1502.58,-58.134
1502.6,-58.115
1502.62,-58.123
1502.64,-58.121
1502.66,-58.102
1502.68,-58.1
1502.7,-58.097
1502.72,-58.088
1502.74,-58.088
1502.76,-58.071
1502.78,-58.075
1502.8,-58.076
1502.82,-58.053
1502.84,-58.062
1502.86,-58.053
1502.88,-58.052
1502.9,-58.035
1502.92,-58.023
1502.94,-58.021
1502.96,-58.013
1502.98,-58.015
1503,-58.009
1503.02,-58
1503.04,-57.997
1503.06,-57.981
1503.08,-57.986
1503.1,-57.967
1503.12,-57.964
1503.14,-57.949
1503.16,-57.958
1503.18,-57.949
1503.2,-57.943
1503.22,-57.933
1503.24,-57.919
1503.26,-57.916
1503.28,-57.912
1503.3,-57.91
1503.32,-57.905
1503.34,-57.888
1503.36,-57.889
1503.38,-57.868
1503.4,-57.863
1503.42,-57.853
1503.44,-57.861
1503.46,-57.85
1503.48,-57.847
1503.5,-57.821
1503.52,-57.822
1503.54,-57.811
1503.56,-57.809
1503.58,-57.797
1503.6,-57.797
1503.62,-57.79
1503.64,-57.792
1503.66,-57.769
1503.68,-57.768
1503.7,-57.762
1503.72,-57.758
1503.74,-57.753
1503.76,-57.746
1503.78,-57.73
1503.8,-57.726
1503.82,-57.717
1503.84,-57.709
1503.86,-57.718
1503.88,-57.713
1503.9,-57.694
1503.92,-57.69
1503.94,-57.69
1503.96,-57.683
1503.98,-57.668
1504,-57.662
1504.02,-57.665
1504.04,-57.651
1504.06,-57.647
1504.08,-57.637
1504.1,-57.628
1504.12,-57.622
1504.14,-57.599
1504.16,-57.598
1504.18,-57.603
1504.2,-57.592
1504.22,-57.578
1504.24,-57.569
1504.26,-57.563
1504.28,-57.572
1504.3,-57.549
1504.32,-57.542
1504.34,-57.531
1504.36,-57.531
1504.38,-57.516
1504.4,-57.51
1504.42,-57.52
1504.44,-57.504
1504.46,-57.495
1504.48,-57.482
1504.5,-57.486
1504.52,-57.465
1504.54,-57.47
1504.56,-57.448
1504.58,-57.44
1504.6,-57.437
1504.62,-57.435
1504.64,-57.429
1504.66,-57.413
1504.68,-57.414
1504.7,-57.414
1504.72,-57.397
1504.74,-57.403
1504.76,-57.381
1504.78,-57.378
1504.8,-57.37
1504.82,-57.371
1504.84,-57.363
1504.86,-57.356
1504.88,-57.344
1504.9,-57.327
1504.92,-57.325
1504.94,-57.327
1504.96,-57.32
1504.98,-57.314
1505,-57.3
1505.02,-57.291
1505.04,-57.279
1505.06,-57.26
1505.08,-57.27
1505.1,-57.263
1505.12,-57.247
1505.14,-57.25
1505.16,-57.239
1505.18,-57.228
1505.2,-57.225
1505.22,-57.211
1505.24,-57.205
1505.26,-57.194
1505.28,-57.189
1505.3,-57.186
1505.32,-57.179
1505.34,-57.166
1505.36,-57.157
1505.38,-57.157
1505.4,-57.145
1505.42,-57.132
1505.44,-57.122
1505.46,-57.121
1505.48,-57.11
1505.5,-57.102
1505.52,-57.102
1505.54,-57.09
1505.56,-57.085
1505.58,-57.065
1505.6,-57.056
1505.62,-57.048
1505.64,-57.051
1505.66,-57.048
1505.68,-57.036
1505.7,-57.037
1505.72,-57.015
1505.74,-57.012
1505.76,-57.001
1505.78,-57.002
1505.8,-56.999
1505.82,-56.99
1505.84,-56.976
1505.86,-56.975
1505.88,-56.948
1505.9,-56.948
1505.92,-56.953
1505.94,-56.944
1505.96,-56.934
1505.98,-56.929
1506,-56.92
1506.02,-56.913
1506.04,-56.897
1506.06,-56.895
1506.08,-56.895
1506.1,-56.873
1506.12,-56.867
1506.14,-56.862
1506.16,-56.85
1506.18,-56.84
1506.2,-56.837
1506.22,-56.826
1506.24,-56.823
1506.26,-56.822
1506.28,-56.796
1506.3,-56.8
1506.32,-56.789
1506.34,-56.78
1506.36,-56.769
1506.38,-56.757
1506.4,-56.752
1506.42,-56.755
1506.44,-56.746
1506.46,-56.731
1506.48,-56.725
1506.5,-56.714
1506.52,-56.709
1506.54,-56.688
1506.56,-56.692
1506.58,-56.679
1506.6,-56.675
1506.62,-56.668
1506.64,-56.652
1506.66,-56.649
1506.68,-56.648
1506.7,-56.641
1506.72,-56.626
1506.74,-56.617
1506.76,-56.615
1506.78,-56.611
1506.8,-56.595
1506.82,-56.592
1506.84,-56.59
1506.86,-56.577
1506.88,-56.57
1506.9,-56.564
1506.92,-56.546
1506.94,-56.538
1506.96,-56.535
1506.98,-56.522
1507,-56.524
1507.02,-56.505
1507.04,-56.502
1507.06,-56.492
1507.08,-56.483
1507.1,-56.468
1507.12,-56.465
1507.14,-56.455
1507.16,-56.45
1507.18,-56.446
1507.2,-56.431
1507.22,-56.424
1507.24,-56.415
1507.26,-56.406
1507.28,-56.403
1507.3,-56.394
1507.32,-56.383
1507.34,-56.373
1507.36,-56.375
1507.38,-56.355
1507.4,-56.348
1507.42,-56.336
1507.44,-56.344
1507.46,-56.329
1507.48,-56.314
1507.5,-56.31
1507.52,-56.296
1507.54,-56.292
1507.56,-56.281
1507.58,-56.285
1507.6,-56.261
1507.62,-56.257
1507.64,-56.243
1507.66,-56.248
1507.68,-56.229
1507.7,-56.23
1507.72,-56.211
1507.74,-56.21
1507.76,-56.202
1507.78,-56.191
1507.8,-56.182
1507.82,-56.177
1507.84,-56.169
1507.86,-56.161
1507.88,-56.144
1507.9,-56.141
1507.92,-56.134
1507.94,-56.127
1507.96,-56.111
1507.98,-56.104
1508,-56.092
1508.02,-56.097
1508.04,-56.08
1508.06,-56.063
1508.08,-56.064
1508.1,-56.053
1508.12,-56.044
1508.14,-56.04
1508.16,-56.028
1508.18,-56.021
1508.2,-56.011
1508.22,-56.007
1508.24,-55.999
1508.26,-55.984
1508.28,-55.98
1508.3,-55.957
1508.32,-55.961
1508.34,-55.954
1508.36,-55.943
1508.38,-55.932
1508.4,-55.929
1508.42,-55.915
1508.44,-55.912
1508.46,-55.904
1508.48,-55.888
1508.5,-55.88
1508.52,-55.872
1508.54,-55.868
1508.56,-55.854
1508.58,-55.853
1508.6,-55.844
1508.62,-55.83
1508.64,-55.814
1508.66,-55.822
1508.68,-55.811
1508.7,-55.794
1508.72,-55.796
1508.74,-55.784
1508.76,-55.767
1508.78,-55.773
1508.8,-55.759
1508.82,-55.75
1508.84,-55.751
1508.86,-55.732
1508.88,-55.728
1508.9,-55.718
1508.92,-55.708
1508.94,-55.691
1508.96,-55.693
1508.98,-55.68
1509,-55.669
1509.02,-55.666
1509.04,-55.649
1509.06,-55.642
1509.08,-55.628
1509.1,-55.628
1509.12,-55.616
1509.14,-55.607
1509.16,-55.591
1509.18,-55.593
1509.2,-55.584
1509.22,-55.567
1509.24,-55.557
1509.26,-55.545
1509.28,-55.536
1509.3,-55.532
1509.32,-55.527
1509.34,-55.518
1509.36,-55.499
1509.38,-55.489
1509.4,-55.483
1509.42,-55.469
1509.44,-55.471
1509.46,-55.456
1509.48,-55.45
1509.5,-55.433
1509.52,-55.429
1509.54,-55.425
1509.56,-55.42
1509.58,-55.404
1509.6,-55.4
1509.62,-55.383
1509.64,-55.375
1509.66,-55.369
1509.68,-55.362
1509.7,-55.348
1509.72,-55.338
1509.74,-55.328
1509.76,-55.322
1509.78,-55.317
1509.8,-55.31
1509.82,-55.289
1509.84,-55.289
1509.86,-55.277
1509.88,-55.271
1509.9,-55.254
1509.92,-55.255
1509.94,-55.24
1509.96,-55.234
1509.98,-55.224
1510,-55.21
1510.02,-55.199
1510.04,-55.19
1510.06,-55.177
1510.08,-55.165
1510.1,-55.162
1510.12,-55.154
1510.14,-55.14
1510.16,-55.126
1510.18,-55.114
1510.2,-55.108
1510.22,-55.093
1510.24,-55.084
1510.26,-55.077
1510.28,-55.06
1510.3,-55.046
1510.32,-55.044
1510.34,-55.035
1510.36,-55.022
1510.38,-55.017
1510.4,-55.002
1510.42,-54.994
1510.44,-54.98
1510.46,-54.974
1510.48,-54.96
1510.5,-54.945
1510.52,-54.945
1510.54,-54.935
1510.56,-54.922
1510.58,-54.911
1510.6,-54.901
1510.62,-54.886
1510.64,-54.881
1510.66,-54.865
1510.68,-54.856
1510.7,-54.844
1510.72,-54.835
1510.74,-54.825
1510.76,-54.81
1510.78,-54.799
1510.8,-54.791
1510.82,-54.781
1510.84,-54.767
1510.86,-54.755
1510.88,-54.751
1510.9,-54.735
1510.92,-54.73
1510.94,-54.712
1510.96,-54.702
1510.98,-54.694
1511,-54.681
1511.02,-54.679
1511.04,-54.661
1511.06,-54.64
1511.08,-54.632
1511.1,-54.628
1511.12,-54.611
1511.14,-54.602
1511.16,-54.589
1511.18,-54.577
1511.2,-54.567
1511.22,-54.555
1511.24,-54.547
1511.26,-54.535
1511.28,-54.527
1511.3,-54.51
1511.32,-54.505
1511.34,-54.49
1511.36,-54.483
1511.38,-54.467
1511.4,-54.466
1511.42,-54.448
1511.44,-54.434
1511.46,-54.429
1511.48,-54.412
1511.5,-54.403
1511.52,-54.399
1511.54,-54.388
1511.56,-54.369
1511.58,-54.356
1511.6,-54.344
1511.62,-54.336
1511.64,-54.331
1511.66,-54.318
1511.68,-54.303
1511.7,-54.288
1511.72,-54.277
1511.74,-54.274
1511.76,-54.256
1511.78,-54.245
1511.8,-54.232
1511.82,-54.223
1511.84,-54.212
1511.86,-54.195
1511.88,-54.187
1511.9,-54.175
1511.92,-54.165
1511.94,-54.152
1511.96,-54.144
1511.98,-54.126
1512,-54.116
1512.02,-54.111
1512.04,-54.096
1512.06,-54.085
1512.08,-54.07
1512.1,-54.06
1512.12,-54.046
1512.14,-54.034
1512.16,-54.027
1512.18,-54.014
1512.2,-54.003
1512.22,-53.994
1512.24,-53.977
1512.26,-53.97
1512.28,-53.964
1512.3,-53.944
1512.32,-53.939
1512.34,-53.921
1512.36,-53.914
1512.38,-53.898
1512.4,-53.898
1512.42,-53.884
1512.44,-53.873
1512.46,-53.86
1512.48,-53.851
1512.5,-53.838
1512.52,-53.827
1512.54,-53.817
1512.56,-53.803
1512.58,-53.794
1512.6,-53.781
1512.62,-53.766
1512.64,-53.751
1512.66,-53.744
1512.68,-53.728
1512.7,-53.718
1512.72,-53.701
1512.74,-53.694
1512.76,-53.679
1512.78,-53.668
1512.8,-53.659
1512.82,-53.647
1512.84,-53.636
1512.86,-53.621
1512.88,-53.611
1512.9,-53.603
1512.92,-53.586
1512.94,-53.577
1512.96,-53.56
1512.98,-53.548
1513,-53.541
1513.02,-53.519
1513.04,-53.514
1513.06,-53.5
1513.08,-53.491
1513.1,-53.474
1513.12,-53.465
1513.14,-53.451
1513.16,-53.44
1513.18,-53.424
1513.2,-53.412
1513.22,-53.4
1513.24,-53.394
1513.26,-53.378
1513.28,-53.366
1513.3,-53.352
1513.32,-53.342
1513.34,-53.332
1513.36,-53.315
1513.38,-53.309
1513.4,-53.295
1513.42,-53.286
1513.44,-53.27
1513.46,-53.261
1513.48,-53.245
1513.5,-53.237
1513.52,-53.217
1513.54,-53.212
1513.56,-53.197
1513.58,-53.185
1513.6,-53.17
1513.62,-53.156
1513.64,-53.145
1513.66,-53.133
1513.68,-53.12
1513.7,-53.107
1513.72,-53.09
1513.74,-53.078
1513.76,-53.068
1513.78,-53.057
1513.8,-53.04
1513.82,-53.033
1513.84,-53.018
1513.86,-53.002
1513.88,-52.992
1513.9,-52.976
1513.92,-52.96
1513.94,-52.945
1513.96,-52.931
1513.98,-52.925
1514,-52.912
1514.02,-52.894
1514.04,-52.884
1514.06,-52.867
1514.08,-52.854
1514.1,-52.839
1514.12,-52.825
1514.14,-52.815
1514.16,-52.802
1514.18,-52.795
1514.2,-52.781
1514.22,-52.769
1514.24,-52.758
1514.26,-52.745
1514.28,-52.731
1514.3,-52.718
1514.32,-52.707
1514.34,-52.689
1514.36,-52.678
1514.38,-52.666
1514.4,-52.653
1514.42,-52.641
1514.44,-52.632
1514.46,-52.618
1514.48,-52.594
1514.5,-52.587
1514.52,-52.571
1514.54,-52.56
1514.56,-52.543
1514.58,-52.528
1514.6,-52.519
1514.62,-52.506
1514.64,-52.492
1514.66,-52.474
1514.68,-52.459
1514.7,-52.451
1514.72,-52.434
1514.74,-52.421
1514.76,-52.405
1514.78,-52.393
1514.8,-52.381
1514.82,-52.365
1514.84,-52.351
1514.86,-52.338
1514.88,-52.323
1514.9,-52.31
1514.92,-52.294
1514.94,-52.282
1514.96,-52.266
1514.98,-52.25
1515,-52.234
1515.02,-52.222
1515.04,-52.204
1515.06,-52.189
1515.08,-52.175
1515.1,-52.161
1515.12,-52.148
1515.14,-52.133
1515.16,-52.126
1515.18,-52.107
1515.2,-52.092
1515.22,-52.077
1515.24,-52.065
1515.26,-52.049
1515.28,-52.04
1515.3,-52.024
1515.32,-52.008
1515.34,-51.994
1515.36,-51.982
1515.38,-51.961
1515.4,-51.956
1515.42,-51.939
1515.44,-51.926
1515.46,-51.91
1515.48,-51.896
1515.5,-51.879
1515.52,-51.865
1515.54,-51.85
1515.56,-51.837
1515.58,-51.821
1515.6,-51.803
1515.62,-51.789
1515.64,-51.774
1515.66,-51.758
1515.68,-51.742
1515.7,-51.731
1515.72,-51.712
1515.74,-51.699
1515.76,-51.686
1515.78,-51.67
1515.8,-51.651
1515.82,-51.637
1515.84,-51.624
1515.86,-51.607
1515.88,-51.592
1515.9,-51.575
1515.92,-51.556
1515.94,-51.539
1515.96,-51.525
1515.98,-51.507
1516,-51.492
1516.02,-51.474
1516.04,-51.46
1516.06,-51.442
1516.08,-51.43
1516.1,-51.417
1516.12,-51.403
1516.14,-51.382
1516.16,-51.368
1516.18,-51.352
1516.2,-51.338
1516.22,-51.325
1516.24,-51.307
1516.26,-51.294
1516.28,-51.282
1516.3,-51.263
1516.32,-51.249
1516.34,-51.232
1516.36,-51.22
1516.38,-51.202
1516.4,-51.184
1516.42,-51.168
1516.44,-51.147
1516.46,-51.127
1516.48,-51.115
1516.5,-51.096
1516.52,-51.081
1516.54,-51.064
1516.56,-51.048
1516.58,-51.029
1516.6,-51.011
1516.62,-50.991
1516.64,-50.975
1516.66,-50.958
1516.68,-50.942
1516.7,-50.924
1516.72,-50.905
1516.74,-50.889
1516.76,-50.871
1516.78,-50.853
1516.8,-50.835
1516.82,-50.817
1516.84,-50.799
1516.86,-50.779
1516.88,-50.766
1516.9,-50.75
1516.92,-50.727
1516.94,-50.714
1516.96,-50.691
1516.98,-50.676
1517,-50.658
1517.02,-50.644
1517.04,-50.628
1517.06,-50.607
1517.08,-50.591
1517.1,-50.57
1517.12,-50.553
1517.14,-50.536
1517.16,-50.521
1517.18,-50.504
1517.2,-50.485
1517.22,-50.47
1517.24,-50.449
1517.26,-50.428
1517.28,-50.413
1517.3,-50.392
1517.32,-50.38
1517.34,-50.361
1517.36,-50.34
1517.38,-50.322
1517.4,-50.302
1517.42,-50.286
1517.44,-50.261
1517.46,-50.246
1517.48,-50.227
1517.5,-50.204
1517.52,-50.184
1517.54,-50.168
1517.56,-50.148
1517.58,-50.13
1517.6,-50.112
1517.62,-50.089
1517.64,-50.069
1517.66,-50.048
1517.68,-50.03
1517.7,-50.008
1517.72,-49.985
1517.74,-49.967
1517.76,-49.942
1517.78,-49.922
1517.8,-49.9
1517.82,-49.883
1517.84,-49.863
1517.86,-49.842
1517.88,-49.82
1517.9,-49.804
1517.92,-49.781
1517.94,-49.763
1517.96,-49.743
1517.98,-49.722
1518,-49.702
1518.02,-49.683
1518.04,-49.663
1518.06,-49.64
1518.08,-49.618
1518.1,-49.604
1518.12,-49.584
1518.14,-49.561
1518.16,-49.544
1518.18,-49.519
1518.2,-49.499
1518.22,-49.48
1518.24,-49.456
1518.26,-49.439
1518.28,-49.415
1518.3,-49.395
1518.32,-49.372
1518.34,-49.351
1518.36,-49.332
1518.38,-49.307
1518.4,-49.283
1518.42,-49.261
1518.44,-49.237
1518.46,-49.212
1518.48,-49.191
1518.5,-49.17
1518.52,-49.149
1518.54,-49.127
1518.56,-49.104
1518.58,-49.08
1518.6,-49.056
1518.62,-49.034
1518.64,-49.008
1518.66,-48.985
1518.68,-48.961
1518.7,-48.938
1518.72,-48.916
1518.74,-48.892
1518.76,-48.867
1518.78,-48.852
1518.8,-48.829
1518.82,-48.798
1518.84,-48.774
1518.86,-48.752
1518.88,-48.727
1518.9,-48.709
1518.92,-48.684
1518.94,-48.661
1518.96,-48.638
1518.98,-48.614
1519,-48.589
1519.02,-48.568
1519.04,-48.547
1519.06,-48.522
1519.08,-48.497
1519.1,-48.472
1519.12,-48.443
1519.14,-48.418
1519.16,-48.392
1519.18,-48.369
1519.2,-48.347
1519.22,-48.322
1519.24,-48.291
1519.26,-48.265
1519.28,-48.24
1519.3,-48.213
1519.32,-48.187
1519.34,-48.161
1519.36,-48.127
1519.38,-48.105
1519.4,-48.078
1519.42,-48.035
1519.44,-48.03
1519.46,-48.003
1519.48,-47.975
1519.5,-47.95
1519.52,-47.924
1519.54,-47.894
1519.56,-47.867
1519.58,-47.838
1519.6,-47.812
1519.62,-47.785
1519.64,-47.756
1519.66,-47.731
1519.68,-47.701
1519.7,-47.673
1519.72,-47.646
1519.74,-47.616
1519.76,-47.588
1519.78,-47.563
1519.8,-47.53
1519.82,-47.506
1519.84,-47.48
1519.86,-47.452
1519.88,-47.428
1519.9,-47.398
1519.92,-47.368
1519.94,-47.337
1519.96,-47.307
1519.98,-47.282
1520,-47.259
1520.02,-47.234
1520.04,-47.201
1520.06,-47.165
1520.08,-47.133
1520.1,-47.103
1520.12,-47.077
1520.14,-47.047
1520.16,-47.018
1520.18,-46.986
1520.2,-46.954
1520.22,-46.922
1520.24,-46.889
1520.26,-46.859
1520.28,-46.825
1520.3,-46.791
1520.32,-46.76
1520.34,-46.727
1520.36,-46.699
1520.38,-46.667
1520.4,-46.633
1520.42,-46.603
1520.44,-46.572
1520.46,-46.539
1520.48,-46.508
1520.5,-46.474
1520.52,-46.442
1520.54,-46.413
1520.56,-46.376
1520.58,-46.341
1520.6,-46.31
1520.62,-46.275
1520.64,-46.241
1520.66,-46.209
1520.68,-46.173
1520.7,-46.141
1520.72,-46.111
1520.74,-46.071
1520.76,-46.036
1520.78,-46.007
1520.8,-45.977
1520.82,-45.945
1520.84,-45.911
1520.86,-45.874
1520.88,-45.84
1520.9,-45.809
1520.92,-45.774
1520.94,-45.739
1520.96,-45.708
1520.98,-45.674
1521,-45.635
1521.02,-45.598
1521.04,-45.568
1521.06,-45.535
1521.08,-45.494
1521.1,-45.458
1521.12,-45.426
1521.14,-45.389
1521.16,-45.352
1521.18,-45.314
1521.2,-45.278
1521.22,-45.24
1521.24,-45.209
1521.26,-45.166
1521.28,-45.129
1521.3,-45.093
1521.32,-45.056
1521.34,-45.024
1521.36,-44.985
1521.38,-44.948
1521.4,-44.908
1521.42,-44.87
1521.44,-44.833
1521.46,-44.799
1521.48,-44.763
1521.5,-44.719
1521.52,-44.682
1521.54,-44.642
1521.56,-44.604
1521.58,-44.566
1521.6,-44.528
1521.62,-44.489
1521.64,-44.45
1521.66,-44.414
1521.68,-44.371
1521.7,-44.335
1521.72,-44.3
1521.74,-44.262
1521.76,-44.224
1521.78,-44.186
1521.8,-44.147
1521.82,-44.111
1521.84,-44.075
1521.86,-44.035
1521.88,-43.999
1521.9,-43.96
1521.92,-43.921
1521.94,-43.882
1521.96,-43.846
1521.98,-43.808
1522,-43.77
1522.02,-43.729
1522.04,-43.691
1522.06,-43.648
1522.08,-43.603
1522.1,-43.568
1522.12,-43.529
1522.14,-43.486
1522.16,-43.443
1522.18,-43.405
1522.2,-43.363
1522.22,-43.32
1522.24,-43.279
1522.26,-43.241
1522.28,-43.202
1522.3,-43.161
1522.32,-43.122
1522.34,-43.08
1522.36,-43.039
1522.38,-42.995
1522.4,-42.948
1522.42,-42.914
1522.44,-42.872
1522.46,-42.831
1522.48,-42.786
1522.5,-42.744
1522.52,-42.709
1522.54,-42.661
1522.56,-42.619
1522.58,-42.583
1522.6,-42.541
1522.62,-42.501
1522.64,-42.459
1522.66,-42.418
1522.68,-42.376
1522.7,-42.336
1522.72,-42.295
1522.74,-42.255
1522.76,-42.216
1522.78,-42.179
1522.8,-42.14
1522.82,-42.1
1522.84,-42.057
1522.86,-42.017
1522.88,-41.977
1522.9,-41.936
1522.92,-41.895
1522.94,-41.854
1522.96,-41.817
1522.98,-41.774
1523,-41.733
1523.02,-41.691
1523.04,-41.651
1523.06,-41.611
1523.08,-41.57
1523.1,-41.532
1523.12,-41.49
1523.14,-41.445
1523.16,-41.402
1523.18,-41.362
1523.2,-41.321
1523.22,-41.278
1523.24,-41.239
1523.26,-41.199
1523.28,-41.158
1523.3,-41.117
1523.32,-41.074
1523.34,-41.032
1523.36,-40.99
1523.38,-40.948
1523.4,-40.905
1523.42,-40.862
1523.44,-40.82
1523.46,-40.779
1523.48,-40.738
1523.5,-40.695
1523.52,-40.661
1523.54,-40.621
1523.56,-40.579
1523.58,-40.54
1523.6,-40.498
1523.62,-40.456
1523.64,-40.416
1523.66,-40.374
1523.68,-40.337
1523.7,-40.299
1523.72,-40.26
1523.74,-40.219
1523.76,-40.179
1523.78,-40.139
1523.8,-40.098
1523.82,-40.058
1523.84,-40.017
1523.86,-39.977
1523.88,-39.937
1523.9,-39.898
1523.92,-39.86
1523.94,-39.822
1523.96,-39.782
1523.98,-39.742
1524,-39.703
1524.02,-39.664
1524.04,-39.623
1524.06,-39.585
1524.08,-39.538
1524.1,-39.493
1524.12,-39.453
1524.14,-39.413
1524.16,-39.371
1524.18,-39.331
1524.2,-39.294
1524.22,-39.254
1524.24,-39.215
1524.26,-39.18
1524.28,-39.141
1524.3,-39.103
1524.32,-39.055
1524.34,-39.015
1524.36,-38.985
1524.38,-38.936
1524.4,-38.89
1524.42,-38.854
1524.44,-38.826
1524.46,-38.783
1524.48,-38.753
1524.5,-38.715
1524.52,-38.673
1524.54,-38.635
1524.56,-38.596
1524.58,-38.557
1524.6,-38.521
1524.62,-38.485
1524.64,-38.447
1524.66,-38.408
1524.68,-38.368
1524.7,-38.329
1524.72,-38.291
1524.74,-38.254
1524.76,-38.217
1524.78,-38.178
1524.8,-38.136
1524.82,-38.099
1524.84,-38.062
1524.86,-38.026
1524.88,-37.989
1524.9,-37.953
1524.92,-37.918
1524.94,-37.879
1524.96,-37.841
1524.98,-37.805
1525,-37.767
1525.02,-37.733
1525.04,-37.69
1525.06,-37.648
1525.08,-37.608
1525.1,-37.573
1525.12,-37.538
1525.14,-37.501
1525.16,-37.464
1525.18,-37.425
1525.2,-37.388
1525.22,-37.353
1525.24,-37.319
1525.26,-37.281
1525.28,-37.246
1525.3,-37.206
1525.32,-37.155
1525.34,-37.116
1525.36,-37.083
1525.38,-37.054
1525.4,-37.013
1525.42,-36.986
1525.44,-36.947
1525.46,-36.908
1525.48,-36.871
1525.5,-36.834
1525.52,-36.801
1525.54,-36.767
1525.56,-36.739
1525.58,-36.702
1525.6,-36.668
1525.62,-36.629
1525.64,-36.592
1525.66,-36.553
1525.68,-36.516
1525.7,-36.481
1525.72,-36.446
1525.74,-36.41
1525.76,-36.375
1525.78,-36.338
1525.8,-36.301
1525.82,-36.261
1525.84,-36.225
1525.86,-36.189
1525.88,-36.154
1525.9,-36.119
1525.92,-36.083
1525.94,-36.046
1525.96,-35.998
1525.98,-35.959
1526,-35.924
1526.02,-35.89
1526.04,-35.857
1526.06,-35.821
1526.08,-35.786
1526.1,-35.754
1526.12,-35.721
1526.14,-35.686
1526.16,-35.653
1526.18,-35.621
1526.2,-35.579
1526.22,-35.55
1526.24,-35.502
1526.26,-35.465
1526.28,-35.43
1526.3,-35.409
1526.32,-35.376
1526.34,-35.341
1526.36,-35.309
1526.38,-35.273
1526.4,-35.24
1526.42,-35.201
1526.44,-35.164
1526.46,-35.134
1526.48,-35.101
1526.5,-35.069
1526.52,-35.037
1526.54,-35.005
1526.56,-34.97
1526.58,-34.935
1526.6,-34.899
1526.62,-34.868
1526.64,-34.835
1526.66,-34.806
1526.68,-34.774
1526.7,-34.74
1526.72,-34.706
1526.74,-34.675
1526.76,-34.64
1526.78,-34.603
1526.8,-34.568
1526.82,-34.534
1526.84,-34.499
1526.86,-34.463
1526.88,-34.423
1526.9,-34.379
1526.92,-34.34
1526.94,-34.304
1526.96,-34.264
1526.98,-34.228
1527,-34.192
1527.02,-34.157
1527.04,-34.121
1527.06,-34.081
1527.08,-34.044
1527.1,-34.009
1527.12,-33.97
1527.14,-33.927
1527.16,-33.895
1527.18,-33.859
1527.2,-33.823
1527.22,-33.789
1527.24,-33.754
1527.26,-33.722
1527.28,-33.69
1527.3,-33.657
1527.32,-33.628
1527.34,-33.598
1527.36,-33.565
1527.38,-33.531
1527.4,-33.5
1527.42,-33.47
1527.44,-33.441
1527.46,-33.409
1527.48,-33.376
1527.5,-33.345
1527.52,-33.31
1527.54,-33.277
1527.56,-33.238
1527.58,-33.202
1527.6,-33.167
1527.62,-33.135
1527.64,-33.097
1527.66,-33.063
1527.68,-33.032
1527.7,-32.994
1527.72,-32.956
1527.74,-32.919
1527.76,-32.886
1527.78,-32.849
1527.8,-32.814
1527.82,-32.771
1527.84,-32.735
1527.86,-32.703
1527.88,-32.667
1527.9,-32.63
1527.92,-32.596
1527.94,-32.562
1527.96,-32.527
1527.98,-32.491
1528,-32.461
1528.02,-32.424
1528.04,-32.389
1528.06,-32.347
1528.08,-32.309
1528.1,-32.27
1528.12,-32.234
1528.14,-32.196
1528.16,-32.162
1528.18,-32.126
1528.2,-32.097
1528.22,-32.064
1528.24,-32.032
1528.26,-31.999
1528.28,-31.968
1528.3,-31.935
1528.32,-31.907
1528.34,-31.884
1528.36,-31.854
1528.38,-31.821
1528.4,-31.795
1528.42,-31.768
1528.44,-31.738
1528.46,-31.704
1528.48,-31.677
1528.5,-31.648
1528.52,-31.613
1528.54,-31.581
1528.56,-31.543
1528.58,-31.51
1528.6,-31.477
1528.62,-31.446
1528.64,-31.412
1528.66,-31.374
1528.68,-31.34
1528.7,-31.299
1528.72,-31.252
1528.74,-31.212
1528.76,-31.17
1528.78,-31.135
1528.8,-31.098
1528.82,-31.055
1528.84,-31.015
1528.86,-30.98
1528.88,-30.941
1528.9,-30.901
1528.92,-30.868
1528.94,-30.832
1528.96,-30.798
1528.98,-30.757
1529,-30.713
1529.02,-30.678
1529.04,-30.637
1529.06,-30.597
1529.08,-30.559
1529.1,-30.522
1529.12,-30.484
1529.14,-30.457
1529.16,-30.418
1529.18,-30.38
1529.2,-30.352
1529.22,-30.316
1529.24,-30.279
1529.26,-30.25
1529.28,-30.22
1529.3,-30.187
1529.32,-30.151
1529.34,-30.116
1529.36,-30.075
1529.38,-30.043
1529.4,-30.008
1529.42,-29.968
1529.44,-29.931
1529.46,-29.898
1529.48,-29.857
1529.5,-29.817
1529.52,-29.777
1529.54,-29.743
1529.56,-29.702
1529.58,-29.67
1529.6,-29.627
1529.62,-29.595
1529.64,-29.556
1529.66,-29.522
1529.68,-29.485
1529.7,-29.453
1529.72,-29.419
1529.74,-29.385
1529.76,-29.351
1529.78,-29.32
1529.8,-29.284
1529.82,-29.252
1529.84,-29.217
1529.86,-29.186
1529.88,-29.142
1529.9,-29.114
1529.92,-29.076
1529.94,-29.042
1529.96,-29.011
1529.98,-28.976
1530,-28.944
1530.02,-28.915
1530.04,-28.875
1530.06,-28.84
1530.08,-28.812
1530.1,-28.78
1530.12,-28.744
1530.14,-28.714
1530.16,-28.675
1530.18,-28.639
1530.2,-28.61
1530.22,-28.583
1530.24,-28.548
1530.26,-28.518
1530.28,-28.484
1530.3,-28.446
1530.32,-28.414
1530.34,-28.388
1530.36,-28.351
1530.38,-28.317
1530.4,-28.288
1530.42,-28.253
1530.44,-28.225
1530.46,-28.198
1530.48,-28.166
1530.5,-28.134
1530.52,-28.111
1530.54,-28.076
1530.56,-28.024
1530.58,-27.985
1530.6,-27.938
1530.62,-27.96
1530.64,-27.996
1530.66,-27.91
1530.68,-27.785
1530.7,-27.787
1530.72,-27.751
1530.74,-27.75
1530.76,-27.682
1530.78,-27.711
1530.8,-27.736
1530.82,-27.713
1530.84,-27.679
1530.86,-27.645
1530.88,-27.537
1530.9,-27.435
1530.92,-27.341
1530.94,-27.303
1530.96,-27.264
1530.98,-27.221
1531,-27.304
1531.02,-27.331
1531.04,-27.352
1531.06,-27.376
1531.08,-27.284
1531.1,-27.25
1531.12,-27.213
1531.14,-27.218
1531.16,-27.256
1531.18,-27.217
1531.2,-27.22
1531.22,-27.138
1531.24,-27.06
1531.26,-26.884
1531.28,-26.785
1531.3,-26.757
1531.32,-26.712
1531.34,-26.663
1531.36,-26.617
1531.38,-26.584
1531.4,-26.551
1531.42,-26.506
1531.44,-26.46
1531.46,-26.426
1531.48,-26.378
1531.5,-26.344
1531.52,-26.297
1531.54,-26.252
1531.56,-26.227
1531.58,-26.181
1531.6,-26.166
1531.62,-26.086
1531.64,-26.049
1531.66,-26.058
1531.68,-25.996
1531.7,-25.963
1531.72,-25.933
1531.74,-25.917
1531.76,-26.025
1531.78,-25.979
1531.8,-25.916
1531.82,-26.01
1531.84,-26.176
1531.86,-26.265
1531.88,-26.317
1531.9,-26.223
1531.92,-26.117
1531.94,-25.999
1531.96,-25.99
1531.98,-25.996
1532,-25.597
1532.02,-25.981
1532.04,-26.015
1532.06,-26.133
1532.08,-26.089
1532.1,-26.106
1532.12,-26.127
1532.14,-26.105
1532.16,-26.208
1532.18,-26.311
1532.2,-26.337
1532.22,-26.46
1532.24,-26.328
1532.26,-26.351
1532.28,-26.394
1532.3,-26.416
1532.32,-26.44
1532.34,-26.47
1532.36,-26.499
1532.38,-26.596
1532.4,-26.574
1532.42,-26.601
1532.44,-26.661
1532.46,-26.696
1532.48,-26.716
1532.5,-26.694
1532.52,-26.714
1532.54,-26.72
1532.56,-26.752
1532.58,-26.783
1532.6,-26.815
1532.62,-26.864
1532.64,-26.901
1532.66,-26.939
1532.68,-26.977
1532.7,-27.078
1532.72,-27.059
1532.74,-27.182
1532.76,-27.392
1532.78,-27.34
1532.8,-27.372
1532.82,-27.268
1532.84,-27.243
1532.86,-27.299
1532.88,-27.361
1532.9,-27.424
1532.92,-27.442
1532.94,-27.5
1532.96,-27.593
1532.98,-27.675
1533,-27.689
1533.02,-27.711
1533.04,-27.871
1533.06,-27.903
1533.08,-27.82
1533.1,-27.869
1533.12,-27.912
1533.14,-27.97
1533.16,-28.025
1533.18,-28.121
1533.2,-28.251
1533.22,-28.215
1533.24,-28.154
1533.26,-28.215
1533.28,-28.259
1533.3,-28.3
1533.32,-28.397
1533.34,-28.441
1533.36,-28.415
1533.38,-28.355
1533.4,-28.442
1533.42,-28.476
1533.44,-28.503
1533.46,-28.657
1533.48,-28.614
1533.5,-28.594
1533.52,-28.698
1533.54,-28.729
1533.56,-28.761
1533.58,-28.904
1533.6,-29.024
1533.62,-29.062
1533.64,-29.042
1533.66,-29.015
1533.68,-29.065
1533.7,-29.141
1533.72,-29.186
1533.74,-29.262
1533.76,-29.335
1533.78,-29.355
1533.8,-29.417
1533.82,-29.478
1533.84,-29.536
1533.86,-29.598
1533.88,-29.656
1533.9,-29.711
1533.92,-29.768
1533.94,-29.824
1533.96,-29.882
1533.98,-29.942
1534,-29.988
1534.02,-30.038
1534.04,-30.1
1534.06,-30.153
1534.08,-30.209
1534.1,-30.259
1534.12,-30.316
1534.14,-30.369
1534.16,-30.423
1534.18,-30.477
1534.2,-30.53
1534.22,-30.582
1534.24,-30.631
1534.26,-30.679
1534.28,-30.725
1534.3,-30.778
1534.32,-30.833
1534.34,-30.884
1534.36,-30.934
1534.38,-30.985
1534.4,-31.028
1534.42,-31.077
1534.44,-31.122
1534.46,-31.167
1534.48,-31.214
1534.5,-31.26
1534.52,-31.302
1534.54,-31.349
1534.56,-31.407
1534.58,-31.457
1534.6,-31.499
1534.62,-31.551
1534.64,-31.607
1534.66,-31.66
1534.68,-31.718
1534.7,-31.77
1534.72,-31.827
1534.74,-31.88
1534.76,-31.934
1534.78,-31.986
1534.8,-32.04
1534.82,-32.096
1534.84,-32.152
1534.86,-32.207
1534.88,-32.26
1534.9,-32.308
1534.92,-32.358
1534.94,-32.406
1534.96,-32.46
1534.98,-32.507
1535,-32.558
1535.02,-32.605
1535.04,-32.655
1535.06,-32.699
1535.08,-32.746
1535.1,-32.793
1535.12,-32.842
1535.14,-32.888
1535.16,-32.936
1535.18,-32.983
1535.2,-33.031
1535.22,-33.079
1535.24,-33.126
1535.26,-33.17
1535.28,-33.216
1535.3,-33.262
1535.32,-33.309
1535.34,-33.355
1535.36,-33.4
1535.38,-33.446
1535.4,-33.49
1535.42,-33.534
1535.44,-33.578
1535.46,-33.624
1535.48,-33.675
1535.5,-33.72
1535.52,-33.758
1535.54,-33.801
1535.56,-33.846
1535.58,-33.89
1535.6,-33.932
1535.62,-33.977
1535.64,-34.021
1535.66,-34.063
1535.68,-34.102
1535.7,-34.143
1535.72,-34.185
1535.74,-34.226
1535.76,-34.267
1535.78,-34.31
1535.8,-34.351
1535.82,-34.391
1535.84,-34.432
1535.86,-34.475
1535.88,-34.517
1535.9,-34.558
1535.92,-34.599
1535.94,-34.637
1535.96,-34.679
1535.98,-34.721
1536,-34.758
1536.02,-34.798
1536.04,-34.834
1536.06,-34.875
1536.08,-34.912
1536.1,-34.951
1536.12,-34.988
1536.14,-35.027
1536.16,-35.067
1536.18,-35.102
1536.2,-35.136
1536.22,-35.174
1536.24,-35.208
1536.26,-35.245
1536.28,-35.278
1536.3,-35.315
1536.32,-35.35
1536.34,-35.386
1536.36,-35.418
1536.38,-35.454
1536.4,-35.489
1536.42,-35.524
1536.44,-35.557
1536.46,-35.593
1536.48,-35.626
1536.5,-35.659
1536.52,-35.692
1536.54,-35.726
1536.56,-35.759
1536.58,-35.793
1536.6,-35.826
1536.62,-35.86
1536.64,-35.896
1536.66,-35.928
1536.68,-35.957
1536.7,-35.99
1536.72,-36.02
1536.74,-36.05
1536.76,-36.081
1536.78,-36.113
1536.8,-36.144
1536.82,-36.172
1536.84,-36.201
1536.86,-36.229
1536.88,-36.262
1536.9,-36.294
1536.92,-36.32
1536.94,-36.347
1536.96,-36.375
1536.98,-36.406
1537,-36.433
1537.02,-36.458
1537.04,-36.483
1537.06,-36.511
1537.08,-36.538
1537.1,-36.565
1537.12,-36.59
1537.14,-36.618
1537.16,-36.644
1537.18,-36.669
1537.2,-36.697
1537.22,-36.726
1537.24,-36.751
1537.26,-36.774
1537.28,-36.799
1537.3,-36.823
1537.32,-36.848
1537.34,-36.871
1537.36,-36.896
1537.38,-36.92
1537.4,-36.943
1537.42,-36.971
1537.44,-36.993
1537.46,-37.015
1537.48,-37.037
1537.5,-37.059
1537.52,-37.082
1537.54,-37.106
1537.56,-37.129
1537.58,-37.149
1537.6,-37.171
1537.62,-37.193
1537.64,-37.213
1537.66,-37.233
1537.68,-37.253
1537.7,-37.274
1537.72,-37.294
1537.74,-37.314
1537.76,-37.331
1537.78,-37.35
1537.8,-37.368
1537.82,-37.385
1537.84,-37.402
1537.86,-37.421
1537.88,-37.439
1537.9,-37.453
1537.92,-37.47
1537.94,-37.484
1537.96,-37.499
1537.98,-37.514
1538,-37.531
1538.02,-37.545
1538.04,-37.559
1538.06,-37.572
1538.08,-37.586
1538.1,-37.601
1538.12,-37.615
1538.14,-37.629
1538.16,-37.644
1538.18,-37.657
1538.2,-37.669
1538.22,-37.684
1538.24,-37.698
1538.26,-37.709
1538.28,-37.721
1538.3,-37.737
1538.32,-37.749
1538.34,-37.763
1538.36,-37.779
1538.38,-37.792
1538.4,-37.805
1538.42,-37.819
1538.44,-37.831
1538.46,-37.847
1538.48,-37.861
1538.5,-37.873
1538.52,-37.887
1538.54,-37.897
1538.56,-37.909
1538.58,-37.922
1538.6,-37.934
1538.62,-37.946
1538.64,-37.959
1538.66,-37.97
1538.68,-37.979
1538.7,-37.992
1538.72,-38.001
1538.74,-38.008
1538.76,-38.019
1538.78,-38.027
1538.8,-38.036
1538.82,-38.045
1538.84,-38.052
1538.86,-38.06
1538.88,-38.067
1538.9,-38.076
1538.92,-38.084
1538.94,-38.09
1538.96,-38.098
1538.98,-38.105
1539,-38.113
1539.02,-38.12
1539.04,-38.128
1539.06,-38.134
1539.08,-38.14
1539.1,-38.146
1539.12,-38.152
1539.14,-38.158
1539.16,-38.165
1539.18,-38.173
1539.2,-38.181
1539.22,-38.189
1539.24,-38.194
1539.26,-38.201
1539.28,-38.206
1539.3,-38.214
1539.32,-38.22
1539.34,-38.225
1539.36,-38.233
1539.38,-38.238
1539.4,-38.243
1539.42,-38.249
1539.44,-38.253
1539.46,-38.258
1539.48,-38.261
1539.5,-38.266
1539.52,-38.272
1539.54,-38.275
1539.56,-38.28
1539.58,-38.283
1539.6,-38.289
1539.62,-38.291
1539.64,-38.294
1539.66,-38.298
1539.68,-38.302
1539.7,-38.304
1539.72,-38.306
1539.74,-38.305
1539.76,-38.307
1539.78,-38.309
1539.8,-38.312
1539.82,-38.314
1539.84,-38.312
1539.86,-38.314
1539.88,-38.316
1539.9,-38.318
1539.92,-38.318
1539.94,-38.319
1539.96,-38.318
1539.98,-38.319
1540,-38.32
1540.02,-38.318
1540.04,-38.318
1540.06,-38.319
1540.08,-38.317
1540.1,-38.318
1540.12,-38.319
1540.14,-38.319
1540.16,-38.321
1540.18,-38.322
1540.2,-38.321
1540.22,-38.323
1540.24,-38.322
1540.26,-38.324
1540.28,-38.324
1540.3,-38.323
1540.32,-38.324
1540.34,-38.324
1540.36,-38.326
1540.38,-38.325
1540.4,-38.325
1540.42,-38.323
1540.44,-38.323
1540.46,-38.321
1540.48,-38.32
1540.5,-38.318
1540.52,-38.317
1540.54,-38.316
1540.56,-38.314
1540.58,-38.313
1540.6,-38.31
1540.62,-38.308
1540.64,-38.307
1540.66,-38.304
1540.68,-38.3
1540.7,-38.299
1540.72,-38.297
1540.74,-38.296
1540.76,-38.291
1540.78,-38.29
1540.8,-38.289
1540.82,-38.286
1540.84,-38.284
1540.86,-38.282
1540.88,-38.278
1540.9,-38.275
1540.92,-38.272
1540.94,-38.27
1540.96,-38.268
1540.98,-38.269
1541,-38.265
1541.02,-38.263
1541.04,-38.259
1541.06,-38.258
1541.08,-38.254
1541.1,-38.252
1541.12,-38.248
1541.14,-38.245
1541.16,-38.241
1541.18,-38.238
1541.2,-38.235
1541.22,-38.232
1541.24,-38.229
1541.26,-38.227
1541.28,-38.222
1541.3,-38.218
1541.32,-38.213
1541.34,-38.211
1541.36,-38.207
1541.38,-38.203
1541.4,-38.198
1541.42,-38.195
1541.44,-38.192
1541.46,-38.189
1541.48,-38.184
1541.5,-38.18
1541.52,-38.173
1541.54,-38.168
1541.56,-38.162
1541.58,-38.158
1541.6,-38.154
1541.62,-38.152
1541.64,-38.145
1541.66,-38.139
1541.68,-38.135
1541.7,-38.131
1541.72,-38.125
1541.74,-38.12
1541.76,-38.115
1541.78,-38.11
1541.8,-38.106
1541.82,-38.098
1541.84,-38.092
1541.86,-38.089
1541.88,-38.085
1541.9,-38.08
1541.92,-38.075
1541.94,-38.071
1541.96,-38.07
1541.98,-38.065
1542,-38.063
1542.02,-38.06
1542.04,-38.053
1542.06,-38.048
1542.08,-38.046
1542.1,-38.044
1542.12,-38.041
1542.14,-38.035
1542.16,-38.032
1542.18,-38.031
1542.2,-38.025
1542.22,-38.021
1542.24,-38.016
1542.26,-38.014
1542.28,-38.012
1542.3,-38.005
1542.32,-37.999
1542.34,-37.994
1542.36,-37.99
1542.38,-37.986
1542.4,-37.984
1542.42,-37.978
1542.44,-37.974
1542.46,-37.967
1542.48,-37.963
1542.5,-37.956
1542.52,-37.951
1542.54,-37.948
1542.56,-37.942
1542.58,-37.938
1542.6,-37.933
1542.62,-37.929
1542.64,-37.925
1542.66,-37.92
1542.68,-37.916
1542.7,-37.912
1542.72,-37.906
1542.74,-37.901
1542.76,-37.898
1542.78,-37.895
1542.8,-37.888
1542.82,-37.883
1542.84,-37.879
1542.86,-37.877
1542.88,-37.873
1542.9,-37.87
1542.92,-37.866
1542.94,-37.862
1542.96,-37.859
1542.98,-37.857
1543,-37.855
1543.02,-37.854
1543.04,-37.849
1543.06,-37.846
1543.08,-37.844
1543.1,-37.839
1543.12,-37.835
1543.14,-37.833
1543.16,-37.828
1543.18,-37.826
1543.2,-37.823
1543.22,-37.819
1543.24,-37.817
1543.26,-37.814
1543.28,-37.809
1543.3,-37.804
1543.32,-37.799
1543.34,-37.797
1543.36,-37.793
1543.38,-37.788
1543.4,-37.786
1543.42,-37.779
1543.44,-37.777
1543.46,-37.772
1543.48,-37.768
1543.5,-37.764
1543.52,-37.76
1543.54,-37.757
1543.56,-37.752
1543.58,-37.748
1543.6,-37.742
1543.62,-37.738
1543.64,-37.732
1543.66,-37.727
1543.68,-37.726
1543.7,-37.723
1543.72,-37.716
1543.74,-37.713
1543.76,-37.709
1543.78,-37.708
1543.8,-37.704
1543.82,-37.7
1543.84,-37.698
1543.86,-37.693
1543.88,-37.689
1543.9,-37.687
1543.92,-37.686
1543.94,-37.684
1543.96,-37.682
1543.98,-37.679
1544,-37.677
1544.02,-37.674
1544.04,-37.674
1544.06,-37.671
1544.08,-37.669
1544.1,-37.667
1544.12,-37.665
1544.14,-37.665
1544.16,-37.662
1544.18,-37.661
1544.2,-37.659
1544.22,-37.658
1544.24,-37.654
1544.26,-37.653
1544.28,-37.651
1544.3,-37.648
1544.32,-37.644
1544.34,-37.643
1544.36,-37.642
1544.38,-37.642
1544.4,-37.64
1544.42,-37.64
1544.44,-37.638
1544.46,-37.636
1544.48,-37.635
1544.5,-37.633
1544.52,-37.63
1544.54,-37.627
1544.56,-37.626
1544.58,-37.623
1544.6,-37.621
1544.62,-37.618
1544.64,-37.615
1544.66,-37.613
1544.68,-37.611
1544.7,-37.611
1544.72,-37.61
1544.74,-37.608
1544.76,-37.605
1544.78,-37.603
1544.8,-37.602
1544.82,-37.6
1544.84,-37.6
1544.86,-37.597
1544.88,-37.594
1544.9,-37.592
1544.92,-37.59
1544.94,-37.588
1544.96,-37.584
1544.98,-37.584
1545,-37.58
1545.02,-37.578
1545.04,-37.576
1545.06,-37.573
1545.08,-37.57
1545.1,-37.567
1545.12,-37.565
1545.14,-37.563
1545.16,-37.563
1545.18,-37.557
1545.2,-37.555
1545.22,-37.557
1545.24,-37.552
1545.26,-37.55
1545.28,-37.547
1545.3,-37.548
1545.32,-37.547
1545.34,-37.546
1545.36,-37.546
1545.38,-37.546
1545.4,-37.545
1545.42,-37.546
1545.44,-37.545
1545.46,-37.549
1545.48,-37.546
1545.5,-37.546
1545.52,-37.548
1545.54,-37.547
1545.56,-37.548
1545.58,-37.55
1545.6,-37.552
1545.62,-37.552
1545.64,-37.554
1545.66,-37.556
1545.68,-37.559
1545.7,-37.559
1545.72,-37.561
1545.74,-37.565
1545.76,-37.569
1545.78,-37.57
1545.8,-37.572
1545.82,-37.574
1545.84,-37.575
1545.86,-37.578
1545.88,-37.581
1545.9,-37.583
1545.92,-37.585
1545.94,-37.587
1545.96,-37.589
1545.98,-37.591
1546,-37.592
1546.02,-37.592
1546.04,-37.59
1546.06,-37.591
1546.08,-37.592
1546.1,-37.596
1546.12,-37.6
1546.14,-37.599
1546.16,-37.6
1546.18,-37.601
1546.2,-37.604
1546.22,-37.605
1546.24,-37.606
1546.26,-37.607
1546.28,-37.605
1546.3,-37.607
1546.32,-37.608
1546.34,-37.607
1546.36,-37.608
1546.38,-37.608
1546.4,-37.61
1546.42,-37.607
1546.44,-37.608
1546.46,-37.61
1546.48,-37.614
1546.5,-37.614
1546.52,-37.619
1546.54,-37.622
1546.56,-37.625
1546.58,-37.629
1546.6,-37.63
1546.62,-37.634
1546.64,-37.639
1546.66,-37.642
1546.68,-37.646
1546.7,-37.648
1546.72,-37.651
1546.74,-37.654
1546.76,-37.657
1546.78,-37.659
1546.8,-37.663
1546.82,-37.666
1546.84,-37.669
1546.86,-37.671
1546.88,-37.674
1546.9,-37.677
1546.92,-37.682
1546.94,-37.683
1546.96,-37.684
1546.98,-37.686
1547,-37.689
1547.02,-37.691
1547.04,-37.693
1547.06,-37.695
1547.08,-37.696
1547.1,-37.697
1547.12,-37.7
1547.14,-37.7
1547.16,-37.703
1547.18,-37.703
1547.2,-37.706
1547.22,-37.709
1547.24,-37.709
1547.26,-37.712
1547.28,-37.715
1547.3,-37.718
1547.32,-37.721
1547.34,-37.722
1547.36,-37.725
1547.38,-37.728
1547.4,-37.729
1547.42,-37.733
1547.44,-37.735
1547.46,-37.735
1547.48,-37.739
1547.5,-37.741
1547.52,-37.744
1547.54,-37.747
1547.56,-37.751
1547.58,-37.754
1547.6,-37.757
1547.62,-37.759
1547.64,-37.762
1547.66,-37.764
1547.68,-37.767
1547.7,-37.771
1547.72,-37.773
1547.74,-37.776
1547.76,-37.778
1547.78,-37.781
1547.8,-37.784
1547.82,-37.787
1547.84,-37.787
1547.86,-37.79
1547.88,-37.79
1547.9,-37.792
1547.92,-37.795
1547.94,-37.798
1547.96,-37.798
1547.98,-37.801
1548,-37.803
1548.02,-37.805
1548.04,-37.806
1548.06,-37.807
1548.08,-37.81
1548.1,-37.811
1548.12,-37.814
1548.14,-37.812
1548.16,-37.816
1548.18,-37.817
1548.2,-37.821
1548.22,-37.822
1548.24,-37.824
1548.26,-37.826
1548.28,-37.83
1548.3,-37.834
1548.32,-37.836
1548.34,-37.839
1548.36,-37.839
1548.38,-37.841
1548.4,-37.843
1548.42,-37.845
1548.44,-37.846
1548.46,-37.847
1548.48,-37.849
1548.5,-37.851
1548.52,-37.855
1548.54,-37.859
1548.56,-37.862
1548.58,-37.863
1548.6,-37.865
1548.62,-37.868
1548.64,-37.871
1548.66,-37.874
1548.68,-37.877
1548.7,-37.879
1548.72,-37.884
1548.74,-37.884
1548.76,-37.886
1548.78,-37.891
1548.8,-37.896
1548.82,-37.9
1548.84,-37.905
1548.86,-37.908
1548.88,-37.913
1548.9,-37.917
1548.92,-37.921
1548.94,-37.926
1548.96,-37.93
1548.98,-37.934
1549,-37.936
1549.02,-37.941
1549.04,-37.943
1549.06,-37.946
1549.08,-37.949
1549.1,-37.954
1549.12,-37.955
1549.14,-37.958
1549.16,-37.963
1549.18,-37.966
1549.2,-37.97
1549.22,-37.972
1549.24,-37.976
1549.26,-37.978
1549.28,-37.982
1549.3,-37.986
1549.32,-37.99
1549.34,-37.993
1549.36,-37.995
1549.38,-37.998
1549.4,-38
1549.42,-38.001
1549.44,-38.004
1549.46,-38.007
1549.48,-38.009
1549.5,-38.011
1549.52,-38.014
1549.54,-38.016
1549.56,-38.019
1549.58,-38.021
1549.6,-38.023
1549.62,-38.024
1549.64,-38.024
1549.66,-38.025
1549.68,-38.026
1549.7,-38.026
1549.72,-38.029
1549.74,-38.03
1549.76,-38.031
1549.78,-38.032
1549.8,-38.033
1549.82,-38.034
1549.84,-38.036
1549.86,-38.037
1549.88,-38.039
1549.9,-38.039
1549.92,-38.042
1549.94,-38.04
1549.96,-38.043
1549.98,-38.043
1550,-38.045
1550.02,-38.047
1550.04,-38.048
1550.06,-38.052
1550.08,-38.055
1550.1,-38.057
1550.12,-38.061
1550.14,-38.063
1550.16,-38.064
1550.18,-38.067
1550.2,-38.071
1550.22,-38.074
1550.24,-38.076
1550.26,-38.081
1550.28,-38.083
1550.3,-38.086
1550.32,-38.089
1550.34,-38.093
1550.36,-38.095
1550.38,-38.098
1550.4,-38.103
1550.42,-38.103
1550.44,-38.106
1550.46,-38.108
1550.48,-38.11
1550.5,-38.114
1550.52,-38.117
1550.54,-38.117
1550.56,-38.119
1550.58,-38.121
1550.6,-38.126
1550.62,-38.128
1550.64,-38.131
1550.66,-38.13
1550.68,-38.132
1550.7,-38.136
1550.72,-38.137
1550.74,-38.14
1550.76,-38.143
1550.78,-38.147
1550.8,-38.148
1550.82,-38.151
1550.84,-38.152
1550.86,-38.153
1550.88,-38.157
1550.9,-38.159
1550.92,-38.161
1550.94,-38.164
1550.96,-38.165
1550.98,-38.168
1551,-38.172
1551.02,-38.173
1551.04,-38.177
1551.06,-38.18
1551.08,-38.182
1551.1,-38.185
1551.12,-38.187
1551.14,-38.191
1551.16,-38.197
1551.18,-38.2
1551.2,-38.203
1551.22,-38.208
1551.24,-38.212
1551.26,-38.214
1551.28,-38.218
1551.3,-38.22
1551.32,-38.224
1551.34,-38.23
1551.36,-38.23
1551.38,-38.233
1551.4,-38.236
1551.42,-38.238
1551.44,-38.238
1551.46,-38.241
1551.48,-38.243
1551.5,-38.245
1551.52,-38.246
1551.54,-38.247
1551.56,-38.248
1551.58,-38.252
1551.6,-38.255
1551.62,-38.256
1551.64,-38.256
1551.66,-38.255
1551.68,-38.261
1551.7,-38.263
1551.72,-38.264
1551.74,-38.267
1551.76,-38.269
1551.78,-38.27
1551.8,-38.271
1551.82,-38.27
1551.84,-38.273
1551.86,-38.276
1551.88,-38.28
1551.9,-38.282
1551.92,-38.283
1551.94,-38.283
1551.96,-38.285
1551.98,-38.287
1552,-38.291
1552.02,-38.293
1552.04,-38.295
1552.06,-38.3
1552.08,-38.303
1552.1,-38.302
1552.12,-38.306
1552.14,-38.308
1552.16,-38.309
1552.18,-38.312
1552.2,-38.312
1552.22,-38.313
1552.24,-38.315
1552.26,-38.318
1552.28,-38.32
1552.3,-38.321
1552.32,-38.323
1552.34,-38.325
1552.36,-38.327
1552.38,-38.33
1552.4,-38.33
1552.42,-38.331
1552.44,-38.332
1552.46,-38.333
1552.48,-38.334
1552.5,-38.334
1552.52,-38.336
1552.54,-38.337
1552.56,-38.34
1552.58,-38.34
1552.6,-38.342
1552.62,-38.342
1552.64,-38.344
1552.66,-38.342
1552.68,-38.345
1552.7,-38.345
1552.72,-38.345
1552.74,-38.348
1552.76,-38.35
1552.78,-38.352
1552.8,-38.351
1552.82,-38.352
1552.84,-38.353
1552.86,-38.352
1552.88,-38.352
1552.9,-38.355
1552.92,-38.356
1552.94,-38.356
1552.96,-38.357
1552.98,-38.357
1553,-38.36
1553.02,-38.36
1553.04,-38.36
1553.06,-38.362
1553.08,-38.364
1553.1,-38.362
1553.12,-38.365
1553.14,-38.365
1553.16,-38.363
1553.18,-38.363
1553.2,-38.365
1553.22,-38.364
1553.24,-38.364
1553.26,-38.363
1553.28,-38.362
1553.3,-38.362
1553.32,-38.361
1553.34,-38.362
1553.36,-38.363
1553.38,-38.365
1553.4,-38.363
1553.42,-38.363
1553.44,-38.365
1553.46,-38.366
1553.48,-38.366
1553.5,-38.367
1553.52,-38.367
1553.54,-38.366
1553.56,-38.365
1553.58,-38.365
1553.6,-38.367
1553.62,-38.37
1553.64,-38.37
1553.66,-38.371
1553.68,-38.373
1553.7,-38.375
1553.72,-38.376
1553.74,-38.376
1553.76,-38.378
1553.78,-38.381
1553.8,-38.383
1553.82,-38.383
1553.84,-38.384
1553.86,-38.386
1553.88,-38.389
1553.9,-38.395
1553.92,-38.394
1553.94,-38.397
1553.96,-38.393
1553.98,-38.392
1554,-38.392
1554.02,-38.394
1554.04,-38.394
1554.06,-38.396
1554.08,-38.398
1554.1,-38.398
1554.12,-38.402
1554.14,-38.402
1554.16,-38.402
1554.18,-38.404
1554.2,-38.402
1554.22,-38.403
1554.24,-38.405
1554.26,-38.407
1554.28,-38.408
1554.3,-38.408
1554.32,-38.411
1554.34,-38.411
1554.36,-38.41
1554.38,-38.411
1554.4,-38.413
1554.42,-38.411
1554.44,-38.412
1554.46,-38.414
1554.48,-38.415
1554.5,-38.417
1554.52,-38.418
1554.54,-38.418
1554.56,-38.419
1554.58,-38.421
1554.6,-38.42
1554.62,-38.421
1554.64,-38.422
1554.66,-38.422
1554.68,-38.423
1554.7,-38.424
1554.72,-38.429
1554.74,-38.428
1554.76,-38.431
1554.78,-38.433
1554.8,-38.432
1554.82,-38.436
1554.84,-38.439
1554.86,-38.438
1554.88,-38.441
1554.9,-38.441
1554.92,-38.444
1554.94,-38.446
1554.96,-38.448
1554.98,-38.449
1555,-38.45
1555.02,-38.452
1555.04,-38.451
1555.06,-38.453
1555.08,-38.451
1555.1,-38.451
1555.12,-38.452
1555.14,-38.452
1555.16,-38.455
1555.18,-38.455
1555.2,-38.457
1555.22,-38.456
1555.24,-38.457
1555.26,-38.458
1555.28,-38.459
1555.3,-38.458
1555.32,-38.46
1555.34,-38.46
1555.36,-38.459
1555.38,-38.461
1555.4,-38.461
1555.42,-38.46
1555.44,-38.463
1555.46,-38.463
1555.48,-38.463
1555.5,-38.466
1555.52,-38.468
1555.54,-38.47
1555.56,-38.471
1555.58,-38.473
1555.6,-38.476
1555.62,-38.478
1555.64,-38.479
1555.66,-38.482
1555.68,-38.484
1555.7,-38.485
1555.72,-38.488
1555.74,-38.488
1555.76,-38.49
1555.78,-38.492
1555.8,-38.495
1555.82,-38.496
1555.84,-38.496
1555.86,-38.497
1555.88,-38.498
1555.9,-38.496
1555.92,-38.496
1555.94,-38.497
1555.96,-38.501
1555.98,-38.499
1556,-38.503
1556.02,-38.505
1556.04,-38.507
1556.06,-38.508
1556.08,-38.509
1556.1,-38.51
1556.12,-38.51
1556.14,-38.514
1556.16,-38.516
1556.18,-38.516
1556.2,-38.518
1556.22,-38.525
1556.24,-38.527
1556.26,-38.529
1556.28,-38.526
1556.3,-38.524
1556.32,-38.526
1556.34,-38.529
1556.36,-38.53
1556.38,-38.533
1556.4,-38.533
1556.42,-38.535
1556.44,-38.535
1556.46,-38.536
1556.48,-38.539
1556.5,-38.541
1556.52,-38.541
1556.54,-38.545
1556.56,-38.546
1556.58,-38.548
1556.6,-38.55
1556.62,-38.555
1556.64,-38.555
1556.66,-38.555
1556.68,-38.558
1556.7,-38.561
1556.72,-38.562
1556.74,-38.564
1556.76,-38.565
1556.78,-38.567
1556.8,-38.568
1556.82,-38.571
1556.84,-38.568
1556.86,-38.57
1556.88,-38.573
1556.9,-38.575
1556.92,-38.579
1556.94,-38.582
1556.96,-38.585
1556.98,-38.586
1557,-38.589
1557.02,-38.593
1557.04,-38.593
1557.06,-38.599
1557.08,-38.6
1557.1,-38.605
1557.12,-38.607
1557.14,-38.611
1557.16,-38.614
1557.18,-38.617
1557.2,-38.621
1557.22,-38.625
1557.24,-38.628
1557.26,-38.633
1557.28,-38.637
1557.3,-38.64
1557.32,-38.645
1557.34,-38.649
1557.36,-38.656
1557.38,-38.662
1557.4,-38.667
1557.42,-38.673
1557.44,-38.678
1557.46,-38.682
1557.48,-38.686
1557.5,-38.691
1557.52,-38.696
1557.54,-38.702
1557.56,-38.704
1557.58,-38.709
1557.6,-38.712
1557.62,-38.716
1557.64,-38.72
1557.66,-38.724
1557.68,-38.726
1557.7,-38.729
1557.72,-38.733
1557.74,-38.739
1557.76,-38.743
1557.78,-38.748
1557.8,-38.752
1557.82,-38.757
1557.84,-38.758
1557.86,-38.762
1557.88,-38.766
1557.9,-38.768
1557.92,-38.773
1557.94,-38.777
1557.96,-38.781
1557.98,-38.786
1558,-38.794
1558.02,-38.795
1558.04,-38.801
1558.06,-38.804
1558.08,-38.807
1558.1,-38.815
1558.12,-38.819
1558.14,-38.827
1558.16,-38.834
1558.18,-38.839
1558.2,-38.844
1558.22,-38.853
1558.24,-38.86
1558.26,-38.867
1558.28,-38.872
1558.3,-38.88
1558.32,-38.885
1558.34,-38.89
1558.36,-38.896
1558.38,-38.903
1558.4,-38.911
1558.42,-38.918
1558.44,-38.924
1558.46,-38.929
1558.48,-38.938
1558.5,-38.945
1558.52,-38.952
1558.54,-38.958
1558.56,-38.962
1558.58,-38.97
1558.6,-38.977
1558.62,-38.986
1558.64,-38.989
1558.66,-38.996
1558.68,-39.004
1558.7,-39.011
1558.72,-39.019
1558.74,-39.025
1558.76,-39.034
1558.78,-39.042
1558.8,-39.05
1558.82,-39.057
1558.84,-39.064
1558.86,-39.07
1558.88,-39.076
1558.9,-39.083
1558.92,-39.089
1558.94,-39.095
1558.96,-39.103
1558.98,-39.111
1559,-39.12
1559.02,-39.127
1559.04,-39.134
1559.06,-39.144
1559.08,-39.151
1559.1,-39.159
1559.12,-39.168
1559.14,-39.178
1559.16,-39.188
1559.18,-39.195
1559.2,-39.204
1559.22,-39.212
1559.24,-39.221
1559.26,-39.232
1559.28,-39.241
1559.3,-39.251
1559.32,-39.26
1559.34,-39.27
1559.36,-39.276
1559.38,-39.284
1559.4,-39.295
1559.42,-39.301
1559.44,-39.307
1559.46,-39.315
1559.48,-39.326
1559.5,-39.333
1559.52,-39.341
1559.54,-39.351
1559.56,-39.36
1559.58,-39.37
1559.6,-39.377
1559.62,-39.385
1559.64,-39.397
1559.66,-39.401
1559.68,-39.41
1559.7,-39.418
1559.72,-39.428
1559.74,-39.435
1559.76,-39.444
1559.78,-39.455
1559.8,-39.464
1559.82,-39.474
1559.84,-39.484
1559.86,-39.494
1559.88,-39.508
1559.9,-39.517
1559.92,-39.529
1559.94,-39.536
1559.96,-39.546
1559.98,-39.556
1560,-39.569
1560.02,-39.58
1560.04,-39.59
1560.06,-39.599
1560.08,-39.609
1560.1,-39.616
1560.12,-39.626
1560.14,-39.635
1560.16,-39.644
1560.18,-39.654
1560.2,-39.662
1560.22,-39.673
1560.24,-39.681
1560.26,-39.689
1560.28,-39.7
1560.3,-39.71
1560.32,-39.718
1560.34,-39.728
1560.36,-39.741
1560.38,-39.749
1560.4,-39.758
1560.42,-39.767
1560.44,-39.778
1560.46,-39.789
1560.48,-39.801
1560.5,-39.812
1560.52,-39.825
1560.54,-39.835
1560.56,-39.846
1560.58,-39.856
1560.6,-39.866
1560.62,-39.881
1560.64,-39.89
1560.66,-39.904
1560.68,-39.917
1560.7,-39.927
1560.72,-39.94
1560.74,-39.953
1560.76,-39.966
1560.78,-39.98
1560.8,-39.992
1560.82,-40.005
1560.84,-40.019
1560.86,-40.03
1560.88,-40.044
1560.9,-40.06
1560.92,-40.071
1560.94,-40.086
1560.96,-40.099
1560.98,-40.112
1561,-40.124
1561.02,-40.135
1561.04,-40.148
1561.06,-40.162
1561.08,-40.177
1561.1,-40.188
1561.12,-40.204
1561.14,-40.215
1561.16,-40.23
1561.18,-40.244
1561.2,-40.257
1561.22,-40.268
1561.24,-40.283
1561.26,-40.294
1561.28,-40.307
1561.3,-40.322
1561.32,-40.333
1561.34,-40.345
1561.36,-40.36
1561.38,-40.371
1561.4,-40.386
1561.42,-40.4
1561.44,-40.412
1561.46,-40.419
1561.48,-40.431
1561.5,-40.445
1561.52,-40.457
1561.54,-40.469
1561.56,-40.483
1561.58,-40.496
1561.6,-40.511
1561.62,-40.524
1561.64,-40.538
1561.66,-40.551
1561.68,-40.566
1561.7,-40.578
1561.72,-40.593
1561.74,-40.608
1561.76,-40.622
1561.78,-40.637
1561.8,-40.652
1561.82,-40.667
1561.84,-40.682
1561.86,-40.694
1561.88,-40.708
1561.9,-40.723
1561.92,-40.738
1561.94,-40.751
1561.96,-40.765
1561.98,-40.777
1562,-40.792
1562.02,-40.806
1562.04,-40.82
1562.06,-40.835
1562.08,-40.849
1562.1,-40.864
1562.12,-40.877
1562.14,-40.89
1562.16,-40.905
1562.18,-40.922
1562.2,-40.937
1562.22,-40.952
1562.24,-40.967
1562.26,-40.983
1562.28,-40.997
1562.3,-41.014
1562.32,-41.028
1562.34,-41.044
1562.36,-41.058
1562.38,-41.074
1562.4,-41.088
1562.42,-41.103
1562.44,-41.118
1562.46,-41.132
1562.48,-41.148
1562.5,-41.162
1562.52,-41.178
1562.54,-41.194
1562.56,-41.209
1562.58,-41.224
1562.6,-41.24
1562.62,-41.256
1562.64,-41.274
1562.66,-41.291
1562.68,-41.307
1562.7,-41.323
1562.72,-41.339
1562.74,-41.354
1562.76,-41.369
1562.78,-41.385
1562.8,-41.402
1562.82,-41.419
1562.84,-41.435
1562.86,-41.45
1562.88,-41.468
1562.9,-41.485
1562.92,-41.5
1562.94,-41.518
1562.96,-41.534
1562.98,-41.55
1563,-41.566
1563.02,-41.583
1563.04,-41.598
1563.06,-41.614
1563.08,-41.632
1563.1,-41.65
1563.12,-41.666
1563.14,-41.682
1563.16,-41.7
1563.18,-41.714
1563.2,-41.732
1563.22,-41.747
1563.24,-41.763
1563.26,-41.779
1563.28,-41.795
1563.3,-41.813
1563.32,-41.829
1563.34,-41.844
1563.36,-41.861
1563.38,-41.879
1563.4,-41.899
1563.42,-41.917
1563.44,-41.934
1563.46,-41.953
1563.48,-41.968
1563.5,-41.987
1563.52,-42.003
1563.54,-42.021
1563.56,-42.038
1563.58,-42.056
1563.6,-42.073
1563.62,-42.09
1563.64,-42.106
1563.66,-42.122
1563.68,-42.14
1563.7,-42.157
1563.72,-42.175
1563.74,-42.194
1563.76,-42.209
1563.78,-42.226
1563.8,-42.243
1563.82,-42.26
1563.84,-42.275
1563.86,-42.293
1563.88,-42.311
1563.9,-42.327
1563.92,-42.342
1563.94,-42.358
1563.96,-42.377
1563.98,-42.392
1564,-42.408
1564.02,-42.427
1564.04,-42.444
1564.06,-42.46
1564.08,-42.477
1564.1,-42.492
1564.12,-42.51
1564.14,-42.527
1564.16,-42.542
1564.18,-42.561
1564.2,-42.578
1564.22,-42.597
1564.24,-42.615
1564.26,-42.632
1564.28,-42.652
1564.3,-42.672
1564.32,-42.69
1564.34,-42.708
1564.36,-42.727
1564.38,-42.745
1564.4,-42.763
1564.42,-42.783
1564.44,-42.803
1564.46,-42.821
1564.48,-42.84
1564.5,-42.86
1564.52,-42.88
1564.54,-42.896
1564.56,-42.914
1564.58,-42.931
1564.6,-42.951
1564.62,-42.97
1564.64,-42.987
1564.66,-43.007
1564.68,-43.026
1564.7,-43.043
1564.72,-43.059
1564.74,-43.078
1564.76,-43.095
1564.78,-43.113
1564.8,-43.132
1564.82,-43.149
1564.84,-43.167
1564.86,-43.187
1564.88,-43.202
1564.9,-43.22
1564.92,-43.238
1564.94,-43.256
1564.96,-43.276
1564.98,-43.294
1565,-43.313
1565.02,-43.331
1565.04,-43.347
1565.06,-43.367
1565.08,-43.384
1565.1,-43.402
1565.12,-43.42
1565.14,-43.438
1565.16,-43.458
1565.18,-43.476
1565.2,-43.494
1565.22,-43.513
1565.24,-43.531
1565.26,-43.55
1565.28,-43.57
1565.3,-43.589
1565.32,-43.608
1565.34,-43.627
1565.36,-43.644
1565.38,-43.663
1565.4,-43.68
1565.42,-43.7
1565.44,-43.72
1565.46,-43.737
1565.48,-43.757
1565.5,-43.774
1565.52,-43.793
1565.54,-43.813
1565.56,-43.832
1565.58,-43.849
1565.6,-43.87
1565.62,-43.887
1565.64,-43.907
1565.66,-43.925
1565.68,-43.941
1565.7,-43.961
1565.72,-43.98
1565.74,-43.999
1565.76,-44.019
1565.78,-44.037
1565.8,-44.055
1565.82,-44.075
1565.84,-44.09
1565.86,-44.112
1565.88,-44.129
1565.9,-44.146
1565.92,-44.165
1565.94,-44.183
1565.96,-44.203
1565.98,-44.222
1566,-44.243
1566.02,-44.263
1566.04,-44.285
1566.06,-44.305
1566.08,-44.324
1566.1,-44.343
1566.12,-44.361
1566.14,-44.381
1566.16,-44.401
1566.18,-44.422
1566.2,-44.441
1566.22,-44.461
1566.24,-44.482
1566.26,-44.5
1566.28,-44.518
1566.3,-44.538
1566.32,-44.556
1566.34,-44.577
1566.36,-44.596
1566.38,-44.615
1566.4,-44.634
1566.42,-44.652
1566.44,-44.672
1566.46,-44.689
1566.48,-44.71
1566.5,-44.728
1566.52,-44.75
1566.54,-44.767
1566.56,-44.785
1566.58,-44.804
1566.6,-44.824
1566.62,-44.843
1566.64,-44.861
1566.66,-44.882
1566.68,-44.903
1566.7,-44.921
1566.72,-44.938
1566.74,-44.958
1566.76,-44.978
1566.78,-44.998
1566.8,-45.017
1566.82,-45.037
1566.84,-45.056
1566.86,-45.075
1566.88,-45.096
1566.9,-45.115
1566.92,-45.134
1566.94,-45.152
1566.96,-45.174
1566.98,-45.19
1567,-45.211
1567.02,-45.229
1567.04,-45.248
1567.06,-45.268
1567.08,-45.29
1567.1,-45.31
1567.12,-45.328
1567.14,-45.348
1567.16,-45.367
1567.18,-45.389
1567.2,-45.405
1567.22,-45.424
1567.24,-45.446
1567.26,-45.466
1567.28,-45.484
1567.3,-45.502
1567.32,-45.521
1567.34,-45.54
1567.36,-45.56
1567.38,-45.578
1567.4,-45.598
1567.42,-45.616
1567.44,-45.635
1567.46,-45.654
1567.48,-45.674
1567.5,-45.694
1567.52,-45.717
1567.54,-45.737
1567.56,-45.756
1567.58,-45.775
1567.6,-45.797
1567.62,-45.814
1567.64,-45.835
1567.66,-45.854
1567.68,-45.874
1567.7,-45.894
1567.72,-45.913
1567.74,-45.933
1567.76,-45.953
1567.78,-45.971
1567.8,-45.991
1567.82,-46.011
1567.84,-46.03
1567.86,-46.052
1567.88,-46.071
1567.9,-46.091
1567.92,-46.112
1567.94,-46.131
1567.96,-46.153
1567.98,-46.171
1568,-46.195
1568.02,-46.212
1568.04,-46.232
1568.06,-46.252
1568.08,-46.272
1568.1,-46.292
1568.12,-46.311
1568.14,-46.33
1568.16,-46.351
1568.18,-46.371
1568.2,-46.392
1568.22,-46.408
1568.24,-46.429
1568.26,-46.451
1568.28,-46.473
1568.3,-46.491
1568.32,-46.51
1568.34,-46.53
1568.36,-46.552
1568.38,-46.57
1568.4,-46.587
1568.42,-46.611
1568.44,-46.627
1568.46,-46.65
1568.48,-46.668
1568.5,-46.686
1568.52,-46.706
1568.54,-46.722
1568.56,-46.744
1568.58,-46.761
1568.6,-46.78
1568.62,-46.803
1568.64,-46.821
1568.66,-46.839
1568.68,-46.861
1568.7,-46.879
1568.72,-46.901
1568.74,-46.917
1568.76,-46.941
1568.78,-46.959
1568.8,-46.979
1568.82,-46.997
1568.84,-47.017
1568.86,-47.037
1568.88,-47.056
1568.9,-47.073
1568.92,-47.095
1568.94,-47.114
1568.96,-47.133
1568.98,-47.151
1569,-47.172
1569.02,-47.19
1569.04,-47.209
1569.06,-47.229
1569.08,-47.248
1569.1,-47.268
1569.12,-47.291
1569.14,-47.308
1569.16,-47.329
1569.18,-47.345
1569.2,-47.367
1569.22,-47.385
1569.24,-47.403
1569.26,-47.424
1569.28,-47.444
1569.3,-47.461
1569.32,-47.479
1569.34,-47.495
1569.36,-47.519
1569.38,-47.536
1569.4,-47.555
1569.42,-47.574
1569.44,-47.591
1569.46,-47.612
1569.48,-47.631
1569.5,-47.652
1569.52,-47.672
1569.54,-47.691
1569.56,-47.709
1569.58,-47.727
1569.6,-47.746
1569.62,-47.764
1569.64,-47.78
1569.66,-47.8
1569.68,-47.822
1569.7,-47.839
1569.72,-47.862
1569.74,-47.88
1569.76,-47.896
1569.78,-47.916
1569.8,-47.936
1569.82,-47.955
1569.84,-47.971
1569.86,-47.993
1569.88,-48.012
1569.9,-48.03
1569.92,-48.048
1569.94,-48.065
1569.96,-48.086
1569.98,-48.107
1570,-48.125
1570.02,-48.143
1570.04,-48.159
1570.06,-48.177
1570.08,-48.196
1570.1,-48.215
1570.12,-48.234
1570.14,-48.257
1570.16,-48.272
1570.18,-48.293
1570.2,-48.312
1570.22,-48.327
1570.24,-48.349
1570.26,-48.365
1570.28,-48.385
1570.3,-48.403
1570.32,-48.425
1570.34,-48.438
1570.36,-48.458
1570.38,-48.476
1570.4,-48.495
1570.42,-48.515
1570.44,-48.534
1570.46,-48.554
1570.48,-48.57
1570.5,-48.592
1570.52,-48.614
1570.54,-48.63
1570.56,-48.651
1570.58,-48.669
1570.6,-48.689
1570.62,-48.706
1570.64,-48.728
1570.66,-48.744
1570.68,-48.762
1570.7,-48.781
1570.72,-48.799
1570.74,-48.82
1570.76,-48.837
1570.78,-48.858
1570.8,-48.875
1570.82,-48.894
1570.84,-48.911
1570.86,-48.928
1570.88,-48.946
1570.9,-48.969
1570.92,-48.981
1570.94,-49.001
1570.96,-49.018
1570.98,-49.039
1571,-49.057
1571.02,-49.073
1571.04,-49.091
1571.06,-49.11
1571.08,-49.125
1571.1,-49.143
1571.12,-49.157
1571.14,-49.177
1571.16,-49.199
1571.18,-49.212
1571.2,-49.232
1571.22,-49.252
1571.24,-49.271
1571.26,-49.29
1571.28,-49.309
1571.3,-49.323
1571.32,-49.339
1571.34,-49.359
1571.36,-49.379
1571.38,-49.395
1571.4,-49.418
1571.42,-49.438
1571.44,-49.453
1571.46,-49.474
1571.48,-49.489
1571.5,-49.509
1571.52,-49.527
1571.54,-49.544
1571.56,-49.563
1571.58,-49.582
1571.6,-49.6
1571.62,-49.616
1571.64,-49.636
1571.66,-49.65
1571.68,-49.671
1571.7,-49.684
1571.72,-49.717
1571.74,-49.728
1571.76,-49.736
1571.78,-49.754
1571.8,-49.773
1571.82,-49.789
1571.84,-49.808
1571.86,-49.827
1571.88,-49.842
1571.9,-49.859
1571.92,-49.875
1571.94,-49.892
1571.96,-49.911
1571.98,-49.927
1572,-49.944
1572.02,-49.958
1572.04,-49.978
1572.06,-49.996
1572.08,-50.013
1572.1,-50.031
1572.12,-50.048
1572.14,-50.067
1572.16,-50.084
1572.18,-50.099
1572.2,-50.116
1572.22,-50.132
1572.24,-50.154
1572.26,-50.171
1572.28,-50.188
1572.3,-50.203
1572.32,-50.22
1572.34,-50.238
1572.36,-50.257
1572.38,-50.272
1572.4,-50.291
1572.42,-50.306
1572.44,-50.325
1572.46,-50.338
1572.48,-50.358
1572.5,-50.374
1572.52,-50.387
1572.54,-50.402
1572.56,-50.42
1572.58,-50.436
1572.6,-50.456
1572.62,-50.471
1572.64,-50.484
1572.66,-50.503
1572.68,-50.518
1572.7,-50.537
1572.72,-50.552
1572.74,-50.569
1572.76,-50.583
1572.78,-50.597
1572.8,-50.616
1572.82,-50.63
1572.84,-50.652
1572.86,-50.666
1572.88,-50.683
1572.9,-50.702
1572.92,-50.717
1572.94,-50.736
1572.96,-50.749
1572.98,-50.763
1573,-50.785
1573.02,-50.801
1573.04,-50.814
1573.06,-50.832
1573.08,-50.842
1573.1,-50.863
1573.12,-50.883
1573.14,-50.902
1573.16,-50.912
1573.18,-50.929
1573.2,-50.95
1573.22,-50.964
1573.24,-50.978
1573.26,-50.996
1573.28,-51.01
1573.3,-51.025
1573.32,-51.045
1573.34,-51.057
1573.36,-51.074
1573.38,-51.092
1573.4,-51.106
1573.42,-51.121
1573.44,-51.138
1573.46,-51.149
1573.48,-51.165
1573.5,-51.181
1573.52,-51.199
1573.54,-51.21
1573.56,-51.23
1573.58,-51.245
1573.6,-51.257
1573.62,-51.275
1573.64,-51.29
1573.66,-51.307
1573.68,-51.321
1573.7,-51.334
1573.72,-51.351
1573.74,-51.366
1573.76,-51.381
1573.78,-51.396
1573.8,-51.412
1573.82,-51.426
1573.84,-51.445
1573.86,-51.456
1573.88,-51.474
1573.9,-51.49
1573.92,-51.504
1573.94,-51.518
1573.96,-51.535
1573.98,-51.549
1574,-51.566
1574.02,-51.578
1574.04,-51.594
1574.06,-51.609
1574.08,-51.623
1574.1,-51.636
1574.12,-51.655
1574.14,-51.669
1574.16,-51.683
1574.18,-51.696
1574.2,-51.711
1574.22,-51.726
1574.24,-51.742
1574.26,-51.759
1574.28,-51.769
1574.3,-51.786
1574.32,-51.802
1574.34,-51.816
1574.36,-51.826
1574.38,-51.843
1574.4,-51.858
1574.42,-51.874
1574.44,-51.89
1574.46,-51.904
1574.48,-51.919
1574.5,-51.93
1574.52,-51.945
1574.54,-51.964
1574.56,-51.973
1574.58,-51.988
1574.6,-52.003
1574.62,-52.019
1574.64,-52.033
1574.66,-52.043
1574.68,-52.063
1574.7,-52.078
1574.72,-52.092
1574.74,-52.104
1574.76,-52.122
1574.78,-52.134
1574.8,-52.153
1574.82,-52.164
1574.84,-52.18
1574.86,-52.195
1574.88,-52.209
1574.9,-52.221
1574.92,-52.236
1574.94,-52.247
1574.96,-52.266
1574.98,-52.28
1575,-52.291
1575.02,-52.303
1575.04,-52.314
1575.06,-52.332
1575.08,-52.348
1575.1,-52.363
1575.12,-52.377
1575.14,-52.387
1575.16,-52.404
1575.18,-52.416
1575.2,-52.426
1575.22,-52.441
1575.24,-52.461
1575.26,-52.469
1575.28,-52.485
1575.3,-52.495
1575.32,-52.509
1575.34,-52.527
1575.36,-52.534
1575.38,-52.548
1575.4,-52.561
1575.42,-52.577
1575.44,-52.59
1575.46,-52.605
1575.48,-52.617
1575.5,-52.628
1575.52,-52.642
1575.54,-52.659
1575.56,-52.668
1575.58,-52.681
1575.6,-52.694
1575.62,-52.708
1575.64,-52.722
1575.66,-52.735
1575.68,-52.748
1575.7,-52.762
1575.72,-52.773
1575.74,-52.792
1575.76,-52.804
1575.78,-52.819
1575.8,-52.833
1575.82,-52.843
1575.84,-52.856
1575.86,-52.864
1575.88,-52.88
1575.9,-52.896
1575.92,-52.906
1575.94,-52.927
1575.96,-52.932
1575.98,-52.948
1576,-52.961
1576.02,-52.974
1576.04,-52.987
1576.06,-52.998
1576.08,-53
1576.1,-53.013
1576.12,-53.034
1576.14,-53.049
1576.16,-53.056
1576.18,-53.068
1576.2,-53.081
1576.22,-53.092
1576.24,-53.106
1576.26,-53.126
1576.28,-53.13
1576.3,-53.141
1576.32,-53.153
1576.34,-53.167
1576.36,-53.177
1576.38,-53.193
1576.4,-53.204
1576.42,-53.213
1576.44,-53.226
1576.46,-53.243
1576.48,-53.254
1576.5,-53.264
1576.52,-53.277
1576.54,-53.288
1576.56,-53.301
1576.58,-53.315
1576.6,-53.321
1576.62,-53.338
1576.64,-53.354
1576.66,-53.362
1576.68,-53.377
1576.7,-53.387
1576.72,-53.4
1576.74,-53.407
1576.76,-53.422
1576.78,-53.434
1576.8,-53.45
1576.82,-53.459
1576.84,-53.467
1576.86,-53.484
1576.88,-53.485
1576.9,-53.504
1576.92,-53.512
1576.94,-53.527
1576.96,-53.535
1576.98,-53.546
1577,-53.558
1577.02,-53.57
1577.04,-53.579
1577.06,-53.596
1577.08,-53.602
1577.1,-53.616
1577.12,-53.629
1577.14,-53.636
1577.16,-53.651
1577.18,-53.656
1577.2,-53.67
1577.22,-53.68
1577.24,-53.694
1577.26,-53.706
1577.28,-53.714
1577.3,-53.727
1577.32,-53.745
1577.34,-53.753
1577.36,-53.766
1577.38,-53.774
1577.4,-53.788
1577.42,-53.803
1577.44,-53.809
1577.46,-53.817
1577.48,-53.831
1577.5,-53.847
1577.52,-53.857
1577.54,-53.871
1577.56,-53.878
1577.58,-53.891
1577.6,-53.901
1577.62,-53.915
1577.64,-53.922
1577.66,-53.937
1577.68,-53.946
1577.7,-53.959
1577.72,-53.969
1577.74,-53.981
1577.76,-53.982
1577.78,-53.992
1577.8,-54.009
1577.82,-54.015
1577.84,-54.024
1577.86,-54.038
1577.88,-54.048
1577.9,-54.061
1577.92,-54.074
1577.94,-54.08
1577.96,-54.085
1577.98,-54.101
1578,-54.113
1578.02,-54.121
1578.04,-54.133
1578.06,-54.145
1578.08,-54.152
1578.1,-54.168
1578.12,-54.181
1578.14,-54.183
1578.16,-54.2
1578.18,-54.213
1578.2,-54.221
1578.22,-54.23
1578.24,-54.233
1578.26,-54.255
1578.28,-54.262
1578.3,-54.275
1578.32,-54.278
1578.34,-54.294
1578.36,-54.302
1578.38,-54.307
1578.4,-54.322
1578.42,-54.334
1578.44,-54.339
1578.46,-54.354
1578.48,-54.362
1578.5,-54.373
1578.52,-54.383
1578.54,-54.388
1578.56,-54.404
1578.58,-54.41
1578.6,-54.427
1578.62,-54.432
1578.64,-54.444
1578.66,-54.455
1578.68,-54.463
1578.7,-54.474
1578.72,-54.485
1578.74,-54.498
1578.76,-54.505
1578.78,-54.516
1578.8,-54.531
1578.82,-54.533
1578.84,-54.54
1578.86,-54.556
1578.88,-54.56
1578.9,-54.57
1578.92,-54.579
1578.94,-54.598
1578.96,-54.6
1578.98,-54.609
1579,-54.62
1579.02,-54.632
1579.04,-54.642
1579.06,-54.654
1579.08,-54.658
1579.1,-54.668
1579.12,-54.675
1579.14,-54.689
1579.16,-54.7
1579.18,-54.708
1579.2,-54.717
1579.22,-54.726
1579.24,-54.739
1579.26,-54.746
1579.28,-54.752
1579.3,-54.764
1579.32,-54.779
1579.34,-54.787
1579.36,-54.797
1579.38,-54.8
1579.4,-54.82
1579.42,-54.819
1579.44,-54.833
1579.46,-54.836
1579.48,-54.845
1579.5,-54.854
1579.52,-54.868
1579.54,-54.882
1579.56,-54.883
1579.58,-54.892
1579.6,-54.902
1579.62,-54.914
1579.64,-54.927
1579.66,-54.933
1579.68,-54.936
1579.7,-54.944
1579.72,-54.957
1579.74,-54.971
1579.76,-54.978
1579.78,-54.985
1579.8,-54.997
1579.82,-55.005
1579.84,-55.017
1579.86,-55.015
1579.88,-55.033
1579.9,-55.039
1579.92,-55.048
1579.94,-55.06
1579.96,-55.068
1579.98,-55.074
1580,-55.089
1580.02,-55.091
1580.04,-55.103
1580.06,-55.112
1580.08,-55.126
1580.1,-55.127
1580.12,-55.131
1580.14,-55.145
1580.16,-55.152
1580.18,-55.158
1580.2,-55.165
1580.22,-55.181
1580.24,-55.187
1580.26,-55.199
1580.28,-55.204
1580.3,-55.21
1580.32,-55.222
1580.34,-55.223
1580.36,-55.229
1580.38,-55.238
1580.4,-55.252
1580.42,-55.264
1580.44,-55.273
1580.46,-55.27
1580.48,-55.289
1580.5,-55.286
1580.52,-55.299
1580.54,-55.306
1580.56,-55.321
1580.58,-55.327
1580.6,-55.33
1580.62,-55.345
1580.64,-55.342
1580.66,-55.355
1580.68,-55.372
1580.7,-55.377
1580.72,-55.379
1580.74,-55.394
1580.76,-55.402
1580.78,-55.398
1580.8,-55.423
1580.82,-55.426
1580.84,-55.435
1580.86,-55.438
1580.88,-55.45
1580.9,-55.456
1580.92,-55.467
1580.94,-55.472
1580.96,-55.484
1580.98,-55.492
1581,-55.497
1581.02,-55.51
1581.04,-55.515
1581.06,-55.526
1581.08,-55.528
1581.1,-55.534
1581.12,-55.547
1581.14,-55.557
1581.16,-55.56
1581.18,-55.564
1581.2,-55.577
1581.22,-55.586
1581.24,-55.591
1581.26,-55.6
1581.28,-55.603
1581.3,-55.612
1581.32,-55.616
1581.34,-55.624
1581.36,-55.631
1581.38,-55.644
1581.4,-55.645
1581.42,-55.654
1581.44,-55.663
1581.46,-55.674
1581.48,-55.68
1581.5,-55.68
1581.52,-55.69
1581.54,-55.707
1581.56,-55.708
1581.58,-55.725
1581.6,-55.726
1581.62,-55.743
1581.64,-55.738
1581.66,-55.75
1581.68,-55.757
1581.7,-55.761
1581.72,-55.778
1581.74,-55.778
1581.76,-55.781
1581.78,-55.787
1581.8,-55.793
1581.82,-55.812
1581.84,-55.815
1581.86,-55.826
1581.88,-55.825
1581.9,-55.839
1581.92,-55.849
1581.94,-55.857
1581.96,-55.865
1581.98,-55.865
1582,-55.868
1582.02,-55.886
1582.04,-55.892
1582.06,-55.895
1582.08,-55.911
1582.1,-55.919
1582.12,-55.922
1582.14,-55.929
1582.16,-55.935
1582.18,-55.934
1582.2,-55.946
1582.22,-55.949
1582.24,-55.951
1582.26,-55.969
1582.28,-55.972
1582.3,-55.983
1582.32,-55.981
1582.34,-55.982
1582.36,-55.997
1582.38,-56.009
1582.4,-56.015
1582.42,-56.013
1582.44,-56.029
1582.46,-56.033
1582.48,-56.042
1582.5,-56.043
1582.52,-56.058
1582.54,-56.057
1582.56,-56.068
1582.58,-56.071
1582.6,-56.088
1582.62,-56.097
1582.64,-56.102
1582.66,-56.108
1582.68,-56.111
1582.7,-56.125
1582.72,-56.126
1582.74,-56.134
1582.76,-56.14
1582.78,-56.16
1582.8,-56.16
1582.82,-56.166
1582.84,-56.169
1582.86,-56.179
1582.88,-56.187
1582.9,-56.19
1582.92,-56.194
1582.94,-56.204
1582.96,-56.204
1582.98,-56.222
1583,-56.224
1583.02,-56.222
1583.04,-56.238
1583.06,-56.239
1583.08,-56.251
1583.1,-56.25
1583.12,-56.269
1583.14,-56.268
1583.16,-56.266
1583.18,-56.292
1583.2,-56.284
1583.22,-56.292
1583.24,-56.301
1583.26,-56.306
1583.28,-56.308
1583.3,-56.314
1583.32,-56.326
1583.34,-56.339
1583.36,-56.347
1583.38,-56.349
1583.4,-56.359
1583.42,-56.361
1583.44,-56.368
1583.46,-56.373
1583.48,-56.377
1583.5,-56.39
1583.52,-56.4
1583.54,-56.401
1583.56,-56.398
1583.58,-56.415
1583.6,-56.428
1583.62,-56.421
1583.64,-56.431
1583.66,-56.439
1583.68,-56.453
1583.7,-56.449
1583.72,-56.462
1583.74,-56.447
1583.76,-56.466
1583.78,-56.476
1583.8,-56.476
1583.82,-56.492
1583.84,-56.493
1583.86,-56.498
1583.88,-56.51
1583.9,-56.518
1583.92,-56.512
1583.94,-56.527
1583.96,-56.536
1583.98,-56.54
1584,-56.541
1584.02,-56.554
1584.04,-56.55
1584.06,-56.561
1584.08,-56.571
1584.1,-56.572
1584.12,-56.584
1584.14,-56.583
1584.16,-56.585
1584.18,-56.598
1584.2,-56.609
1584.22,-56.609
1584.24,-56.607
1584.26,-56.619
1584.28,-56.632
1584.3,-56.633
1584.32,-56.644
1584.34,-56.646
1584.36,-56.641
1584.38,-56.661
1584.4,-56.67
1584.42,-56.663
1584.44,-56.67
1584.46,-56.678
1584.48,-56.692
1584.5,-56.69
1584.52,-56.692
1584.54,-56.714
1584.56,-56.715
1584.58,-56.706
1584.6,-56.721
1584.62,-56.717
1584.64,-56.731
1584.66,-56.736
1584.68,-56.747
1584.7,-56.748
1584.72,-56.751
1584.74,-56.756
1584.76,-56.765
1584.78,-56.776
1584.8,-56.784
1584.82,-56.782
1584.84,-56.788
1584.86,-56.794
1584.88,-56.8
1584.9,-56.802
1584.92,-56.802
1584.94,-56.813
1584.96,-56.825
1584.98,-56.827
1585,-56.828
1585.02,-56.846
1585.04,-56.84
1585.06,-56.845
1585.08,-56.855
1585.1,-56.86
1585.12,-56.853
1585.14,-56.874
1585.16,-56.884
1585.18,-56.879
1585.2,-56.888
1585.22,-56.88
1585.24,-56.884
1585.26,-56.905
1585.28,-56.905
1585.3,-56.922
1585.32,-56.912
1585.34,-56.932
1585.36,-56.926
1585.38,-56.934
1585.4,-56.941
1585.42,-56.944
1585.44,-56.959
1585.46,-56.957
1585.48,-56.957
1585.5,-56.962
1585.52,-56.977
1585.54,-56.972
1585.56,-56.993
1585.58,-56.987
1585.6,-56.987
1585.62,-57.006
1585.64,-56.999
1585.66,-57.016
1585.68,-57.018
1585.7,-57.027
1585.72,-57.03
1585.74,-57.031
1585.76,-57.041
1585.78,-57.041
1585.8,-57.046
1585.82,-57.054
1585.84,-57.063
1585.86,-57.065
1585.88,-57.053
1585.9,-57.072
1585.92,-57.064
1585.94,-57.079
1585.96,-57.089
1585.98,-57.082
1586,-57.084
1586.02,-57.11
1586.04,-57.099
1586.06,-57.112
1586.08,-57.119
1586.1,-57.12
1586.12,-57.129
1586.14,-57.134
1586.16,-57.13
1586.18,-57.142
1586.2,-57.149
1586.22,-57.146
1586.24,-57.156
1586.26,-57.155
1586.28,-57.157
1586.3,-57.174
1586.32,-57.177
1586.34,-57.182
1586.36,-57.195
1586.38,-57.189
1586.4,-57.199
1586.42,-57.209
1586.44,-57.207
1586.46,-57.21
1586.48,-57.213
1586.5,-57.229
1586.52,-57.224
1586.54,-57.231
1586.56,-57.245
1586.58,-57.244
1586.6,-57.25
1586.62,-57.252
1586.64,-57.265
1586.66,-57.263
1586.68,-57.271
1586.7,-57.273
1586.72,-57.274
1586.74,-57.288
1586.76,-57.294
1586.78,-57.302
1586.8,-57.313
1586.82,-57.313
1586.84,-57.305
1586.86,-57.326
1586.88,-57.319
1586.9,-57.323
1586.92,-57.334
1586.94,-57.34
1586.96,-57.344
1586.98,-57.345
1587,-57.349
1587.02,-57.366
1587.04,-57.364
1587.06,-57.365
1587.08,-57.361
1587.1,-57.377
1587.12,-57.381
1587.14,-57.385
1587.16,-57.4
1587.18,-57.39
1587.2,-57.409
1587.22,-57.407
1587.24,-57.416
1587.26,-57.409
1587.28,-57.426
1587.3,-57.427
1587.32,-57.437
1587.34,-57.441
1587.36,-57.445
1587.38,-57.454
1587.4,-57.446
1587.42,-57.452
1587.44,-57.462
1587.46,-57.468
1587.48,-57.471
1587.5,-57.475
1587.52,-57.48
1587.54,-57.469
1587.56,-57.493
1587.58,-57.5
1587.6,-57.499
1587.62,-57.515
1587.64,-57.507
1587.66,-57.518
1587.68,-57.519
1587.7,-57.523
1587.72,-57.538
1587.74,-57.535
1587.76,-57.54
1587.78,-57.552
1587.8,-57.549
1587.82,-57.571
1587.84,-57.557
1587.86,-57.567
1587.88,-57.565
1587.9,-57.571
1587.92,-57.583
1587.94,-57.592
1587.96,-57.587
1587.98,-57.585
1588,-57.601
1588.02,-57.596
1588.04,-57.611
1588.06,-57.613
1588.08,-57.632
1588.1,-57.611
1588.12,-57.625
1588.14,-57.63
1588.16,-57.629
1588.18,-57.629
1588.2,-57.639
1588.22,-57.652
1588.24,-57.648
1588.26,-57.651
1588.28,-57.653
1588.3,-57.667
1588.32,-57.673
1588.34,-57.663
1588.36,-57.678
1588.38,-57.679
1588.4,-57.697
1588.42,-57.688
1588.44,-57.688
1588.46,-57.703
1588.48,-57.701
1588.5,-57.709
1588.52,-57.719
1588.54,-57.719
1588.56,-57.725
1588.58,-57.729
1588.6,-57.743
1588.62,-57.734
1588.64,-57.741
1588.66,-57.75
1588.68,-57.745
1588.7,-57.768
1588.72,-57.757
1588.74,-57.756
1588.76,-57.779
1588.78,-57.768
1588.8,-57.774
1588.82,-57.8
1588.84,-57.797
1588.86,-57.785
1588.88,-57.787
1588.9,-57.791
1588.92,-57.812
1588.94,-57.811
1588.96,-57.811
1588.98,-57.815
1589,-57.823
1589.02,-57.826
1589.04,-57.829
1589.06,-57.842
1589.08,-57.841
1589.1,-57.853
1589.12,-57.841
1589.14,-57.859
1589.16,-57.859
1589.18,-57.861
1589.2,-57.863
1589.22,-57.888
1589.24,-57.87
1589.26,-57.891
1589.28,-57.881
1589.3,-57.899
1589.32,-57.895
1589.34,-57.899
1589.36,-57.906
1589.38,-57.907
1589.4,-57.904
1589.42,-57.911
1589.44,-57.922
1589.46,-57.915
1589.48,-57.936
1589.5,-57.942
1589.52,-57.949
1589.54,-57.936
1589.56,-57.959
1589.58,-57.949
1589.6,-57.977
1589.62,-57.969
1589.64,-57.963
1589.66,-57.973
1589.68,-57.981
1589.7,-57.989
1589.72,-57.986
1589.74,-57.971
1589.76,-57.983
1589.78,-57.994
1589.8,-57.991
1589.82,-58.016
1589.84,-57.995
1589.86,-58.024
1589.88,-58.01
1589.9,-58.015
1589.92,-58.033
1589.94,-58.014
1589.96,-58.04
1589.98,-58.033
1590,-58.038
1590.02,-58.056
1590.04,-58.05
1590.06,-58.057
1590.08,-58.061
1590.1,-58.071
1590.12,-58.067
1590.14,-58.076
1590.16,-58.083
1590.18,-58.095
1590.2,-58.087
1590.22,-58.089
1590.24,-58.102
1590.26,-58.1
1590.28,-58.093
1590.3,-58.112
1590.32,-58.128
1590.34,-58.102
1590.36,-58.123
1590.38,-58.135
1590.4,-58.138
1590.42,-58.134
1590.44,-58.139
1590.46,-58.149
1590.48,-58.138
1590.5,-58.149
1590.52,-58.157
1590.54,-58.174
1590.56,-58.165
1590.58,-58.168
1590.6,-58.167
1590.62,-58.175
1590.64,-58.187
1590.66,-58.191
1590.68,-58.2
1590.7,-58.197
1590.72,-58.22
1590.74,-58.199
1590.76,-58.222
1590.78,-58.213
1590.8,-58.216
1590.82,-58.215
1590.84,-58.229
1590.86,-58.235
1590.88,-58.243
1590.9,-58.236
1590.92,-58.249
1590.94,-58.246
1590.96,-58.243
1590.98,-58.25
1591,-58.265
1591.02,-58.275
1591.04,-58.267
1591.06,-58.28
1591.08,-58.275
1591.1,-58.29
1591.12,-58.298
1591.14,-58.298
1591.16,-58.309
1591.18,-58.303
1591.2,-58.306
1591.22,-58.318
1591.24,-58.327
1591.26,-58.325
1591.28,-58.328
1591.3,-58.334
1591.32,-58.354
1591.34,-58.335
1591.36,-58.342
1591.38,-58.347
1591.4,-58.35
1591.42,-58.369
1591.44,-58.37
1591.46,-58.371
1591.48,-58.357
1591.5,-58.39
1591.52,-58.367
1591.54,-58.382
1591.56,-58.382
1591.58,-58.394
1591.6,-58.401
1591.62,-58.404
1591.64,-58.399
1591.66,-58.422
1591.68,-58.415
1591.7,-58.414
1591.72,-58.434
1591.74,-58.434
1591.76,-58.433
1591.78,-58.436
1591.8,-58.446
1591.82,-58.44
1591.84,-58.453
1591.86,-58.444
1591.88,-58.461
1591.9,-58.464
1591.92,-58.473
1591.94,-58.479
1591.96,-58.483
1591.98,-58.47
1592,-58.493
1592.02,-58.491
1592.04,-58.506
1592.06,-58.481
1592.08,-58.499
1592.1,-58.527
1592.12,-58.513
1592.14,-58.516
1592.16,-58.525
1592.18,-58.531
1592.2,-58.514
1592.22,-58.534
1592.24,-58.529
1592.26,-58.548
1592.28,-58.546
1592.3,-58.554
1592.32,-58.559
1592.34,-58.544
1592.36,-58.569
1592.38,-58.574
1592.4,-58.55
1592.42,-58.579
1592.44,-58.578
1592.46,-58.571
1592.48,-58.592
1592.5,-58.596
1592.52,-58.589
1592.54,-58.603
1592.56,-58.597
1592.58,-58.61
1592.6,-58.594
1592.62,-58.612
1592.64,-58.64
1592.66,-58.618
1592.68,-58.634
1592.7,-58.619
1592.72,-58.64
1592.74,-58.646
1592.76,-58.644
1592.78,-58.656
1592.8,-58.656
1592.82,-58.645
1592.84,-58.665
1592.86,-58.665
1592.88,-58.662
1592.9,-58.676
1592.92,-58.678
1592.94,-58.678
1592.96,-58.692
1592.98,-58.692
1593,-58.688
1593.02,-58.69
1593.04,-58.692
1593.06,-58.701
1593.08,-58.714
1593.1,-58.704
1593.12,-58.71
1593.14,-58.711
1593.16,-58.717
1593.18,-58.711
1593.2,-58.751
1593.22,-58.736
1593.24,-58.75
1593.26,-58.738
1593.28,-58.743
1593.3,-58.753
1593.32,-58.743
1593.34,-58.762
1593.36,-58.768
1593.38,-58.768
1593.4,-58.763
1593.42,-58.77
1593.44,-58.766
1593.46,-58.792
1593.48,-58.783
1593.5,-58.81
1593.52,-58.777
1593.54,-58.791
1593.56,-58.813
1593.58,-58.816
1593.6,-58.817
1593.62,-58.812
1593.64,-58.82
1593.66,-58.831
1593.68,-58.818
1593.7,-58.83
1593.72,-58.845
1593.74,-58.819
1593.76,-58.848
1593.78,-58.859
1593.8,-58.856
1593.82,-58.859
1593.84,-58.877
1593.86,-58.867
1593.88,-58.854
1593.9,-58.869
1593.92,-58.876
1593.94,-58.883
1593.96,-58.886
1593.98,-58.892
1594,-58.896
1594.02,-58.887
1594.04,-58.901
1594.06,-58.906
1594.08,-58.904
1594.1,-58.914
1594.12,-58.926
1594.14,-58.914
1594.16,-58.928
1594.18,-58.904
1594.2,-58.933
1594.22,-58.947
1594.24,-58.942
1594.26,-58.956
1594.28,-58.947
1594.3,-58.959
1594.32,-58.95
1594.34,-58.969
1594.36,-58.972
1594.38,-58.963
1594.4,-58.985
1594.42,-58.975
1594.44,-58.989
1594.46,-58.988
1594.48,-58.999
1594.5,-58.983
1594.52,-59.012
1594.54,-58.991
1594.56,-59.026
1594.58,-59.013
1594.6,-59.011
1594.62,-59.018
1594.64,-59.022
1594.66,-59.038
1594.68,-59.03
1594.7,-59.042
1594.72,-59.034
1594.74,-59.049
1594.76,-59.057
1594.78,-59.058
1594.8,-59.076
1594.82,-59.071
1594.84,-59.071
1594.86,-59.075
1594.88,-59.079
1594.9,-59.081
1594.92,-59.078
1594.94,-59.088
1594.96,-59.1
1594.98,-59.08
1595,-59.1
1595.02,-59.094
1595.04,-59.106
1595.06,-59.116
1595.08,-59.117
1595.1,-59.122
1595.12,-59.141
1595.14,-59.111
1595.16,-59.126
1595.18,-59.144
1595.2,-59.146
1595.22,-59.159
1595.24,-59.15
1595.26,-59.15
1595.28,-59.159
1595.3,-59.155
1595.32,-59.162
1595.34,-59.164
1595.36,-59.17
1595.38,-59.173
1595.4,-59.189
1595.42,-59.19
1595.44,-59.204
1595.46,-59.183
1595.48,-59.183
1595.5,-59.202
1595.52,-59.216
1595.54,-59.222
1595.56,-59.234
1595.58,-59.227
1595.6,-59.223
1595.62,-59.226
1595.64,-59.233
1595.66,-59.223
1595.68,-59.244
1595.7,-59.25
1595.72,-59.243
1595.74,-59.256
1595.76,-59.249
1595.78,-59.256
1595.8,-59.261
1595.82,-59.256
1595.84,-59.278
1595.86,-59.277
1595.88,-59.278
1595.9,-59.278
1595.92,-59.278
1595.94,-59.299
1595.96,-59.322
1595.98,-59.297
1596,-59.303
1596.02,-59.301
1596.04,-59.319
1596.06,-59.328
1596.08,-59.338
1596.1,-59.312
1596.12,-59.324
1596.14,-59.343
1596.16,-59.347
1596.18,-59.377
1596.2,-59.345
1596.22,-59.353
1596.24,-59.363
1596.26,-59.364
1596.28,-59.382
1596.3,-59.373
1596.32,-59.373
1596.34,-59.372
1596.36,-59.379
1596.38,-59.384
1596.4,-59.401
1596.42,-59.387
1596.44,-59.404
1596.46,-59.409
1596.48,-59.403
1596.5,-59.395
1596.52,-59.413
1596.54,-59.416
1596.56,-59.432
1596.58,-59.432
1596.6,-59.395
1596.62,-59.446
1596.64,-59.453
1596.66,-59.445
1596.68,-59.436
1596.7,-59.46
1596.72,-59.45
1596.74,-59.455
1596.76,-59.439
1596.78,-59.456
1596.8,-59.472
1596.82,-59.484
1596.84,-59.464
1596.86,-59.481
1596.88,-59.502
1596.9,-59.484
1596.92,-59.504
1596.94,-59.5
1596.96,-59.496
1596.98,-59.504
1597,-59.488
1597.02,-59.51
1597.04,-59.506
1597.06,-59.527
1597.08,-59.532
1597.1,-59.52
1597.12,-59.541
1597.14,-59.539
1597.16,-59.545
1597.18,-59.557
1597.2,-59.544
1597.22,-59.53
1597.24,-59.564
1597.26,-59.569
1597.28,-59.575
1597.3,-59.547
1597.32,-59.577
1597.34,-59.584
1597.36,-59.592
1597.38,-59.597
1597.4,-59.581
1597.42,-59.583
1597.44,-59.596
1597.46,-59.609
1597.48,-59.626
1597.5,-59.601
1597.52,-59.617
1597.54,-59.61
1597.56,-59.63
1597.58,-59.608
1597.6,-59.634
1597.62,-59.634
1597.64,-59.632
1597.66,-59.648
1597.68,-59.641
1597.7,-59.652
1597.72,-59.647
1597.74,-59.658
1597.76,-59.649
1597.78,-59.67
1597.8,-59.685
1597.82,-59.659
1597.84,-59.661
1597.86,-59.674
1597.88,-59.696
1597.9,-59.679
1597.92,-59.706
1597.94,-59.704
1597.96,-59.698
1597.98,-59.691
1598,-59.71
1598.02,-59.727
1598.04,-59.715
1598.06,-59.712
1598.08,-59.737
1598.1,-59.706
1598.12,-59.732
1598.14,-59.712
1598.16,-59.723
1598.18,-59.774
1598.2,-59.769
1598.22,-59.756
1598.24,-59.78
1598.26,-59.762
1598.28,-59.756
1598.3,-59.766
1598.32,-59.775
1598.34,-59.778
1598.36,-59.78
1598.38,-59.773
1598.4,-59.797
1598.42,-59.782
1598.44,-59.805
1598.46,-59.805
1598.48,-59.794
1598.5,-59.815
1598.52,-59.826
1598.54,-59.817
1598.56,-59.82
1598.58,-59.837
1598.6,-59.846
1598.62,-59.866
1598.64,-59.839
1598.66,-59.839
1598.68,-59.866
1598.7,-59.844
1598.72,-59.865
1598.74,-59.857
1598.76,-59.867
1598.78,-59.888
1598.8,-59.863
1598.82,-59.889
1598.84,-59.887
1598.86,-59.897
1598.88,-59.92
1598.9,-59.887
1598.92,-59.89
1598.94,-59.908
1598.96,-59.896
1598.98,-59.937
1599,-59.912
1599.02,-59.92
1599.04,-59.953
1599.06,-59.941
1599.08,-59.918
1599.1,-59.931
1599.12,-59.941
1599.14,-59.954
1599.16,-59.96
1599.18,-59.961
1599.2,-59.963
1599.22,-59.968
1599.24,-59.988
1599.26,-59.968
1599.28,-59.987
1599.3,-59.982
1599.32,-59.98
1599.34,-59.992
1599.36,-60.022
1599.38,-59.985
1599.4,-60
1599.42,-59.994
1599.44,-60.016
1599.46,-60.022
1599.48,-60.012
1599.5,-60.028
1599.52,-60.03
1599.54,-60.022
1599.56,-60.032
1599.58,-60.038
1599.6,-60.033
1599.62,-60.063
1599.64,-60.046
1599.66,-60.052
1599.68,-60.059
1599.7,-60.062
1599.72,-60.078
1599.74,-60.075
1599.76,-60.09
1599.78,-60.058
1599.8,-60.079
1599.82,-60.1
1599.84,-60.07
1599.86,-60.102
1599.88,-60.078
1599.9,-60.116
1599.92,-60.132
1599.94,-60.118
1599.96,-60.125
1599.98,-60.124
1600,-60.112
